Number of volumes (nv), q-vectors (nq), normal mode (np), formula units(nm)
23 84 6 1

P	=	0.36	V	=	142.58739	E	=	-655.50189125
0.0 0.0 0.0
-0.0
0.0
0.0
188.5681
188.5681
284.4116
0.0 0.0 0.062551
29.5631
29.5631
60.2015
186.3492
186.3492
283.811
0.0 0.0 0.125102
57.7905
57.7905
116.7384
179.479
179.479
281.1573
0.0 0.0 0.187652
84.0597
84.0597
166.5675
167.6674
167.6674
274.3418
0.0 0.0 0.250203
108.4589
108.4589
151.1864
151.1864
207.6569
260.956
0.0 0.0 -0.312754
131.0475
131.0475
131.0494
131.0494
239.0259
239.1399
0.0 0.115279 0.0
52.2222
58.8835
106.3699
195.4443
207.983
280.8992
0.0 0.115279 0.062551
66.2433
66.9614
117.0453
193.5158
205.8033
280.4252
0.0 0.115279 0.125102
83.4385
91.0881
146.4069
187.5727
199.125
278.2906
0.0 0.115279 0.187652
104.116
113.0534
177.3419
183.0204
188.0602
272.64
0.0 0.115279 0.250203
125.1303
133.9216
162.9665
172.9
216.838
261.3028
0.0 0.115279 -0.312754
145.0561
145.2345
154.063
154.8687
242.66
243.3185
0.0 0.230557 0.0
101.0639
105.6827
189.2586
209.5071
244.2201
271.2531
0.0 0.230557 0.062551
106.2906
110.1724
194.8335
208.1152
240.6533
272.3999
0.0 0.230557 0.125102
120.1839
122.0653
203.7958
209.5204
231.2061
274.1371
0.0 0.230557 0.187652
138.1204
138.5378
196.2879
217.8597
228.795
273.599
0.0 0.230557 0.250203
155.331
158.6672
185.4576
201.6068
247.601
268.9496
0.0 0.230557 -0.312754
171.4462
171.6562
179.4166
182.7144
259.5396
262.0608
0.0 0.345836 0.0
133.0136
142.6265
220.7713
237.2102
257.9894
268.2589
0.0 0.345836 0.062551
136.6503
142.2707
219.6347
241.4325
250.9281
273.4429
0.0 0.345836 0.125102
143.8813
146.738
216.1413
237.3463
252.8992
279.8486
0.0 0.345836 0.187652
151.3962
160.8299
210.1629
221.8975
265.3519
283.9576
0.0 0.345836 0.250203
165.4238
176.0661
201.4651
204.1608
276.1816
284.85
0.0 0.345836 -0.312754
183.4566
185.3004
189.9005
190.1281
281.9602
283.2687
0.0 0.461114 0.0
142.3727
172.727
226.195
244.8175
256.3861
273.1826
0.0 0.461114 0.062551
145.7925
168.6564
224.9585
239.9181
261.0191
276.3715
0.0 0.461114 0.125102
155.3296
161.3494
221.3113
228.749
270.8945
282.4585
0.0 0.461114 0.187652
159.3713
168.7099
213.8542
215.3838
280.4399
288.1042
0.0 0.461114 0.250203
166.4686
183.1623
196.5668
207.0933
287.0179
291.6834
0.0 0.461114 -0.312754
178.8833
180.8831
196.2462
196.4071
290.3896
291.8158
0.0 -0.576393 0.0
143.3887
184.9619
227.5817
238.1995
261.2208
270.8602
0.0 -0.576393 0.062551
146.8436
179.3524
226.2313
233.7681
265.8879
274.127
0.0 -0.576393 0.125102
156.3176
168.7049
222.3416
223.1886
275.2973
280.7608
0.0 -0.576393 0.187652
162.5446
169.5399
209.1607
216.1801
284.0366
286.7867
0.0 -0.576393 0.250203
165.6745
183.8014
193.1654
207.7664
289.2415
291.1453
0.0 -0.576393 -0.312754
175.2735
179.359
196.9
196.9347
290.3954
293.2356
0.099834 0.172918 0.0
88.6064
101.8641
165.3249
210.1565
232.281
274.3041
0.099834 0.172918 0.062551
95.0041
106.45
172.2206
208.752
229.5367
274.5137
0.099834 0.172918 0.125102
110.8999
118.5407
189.7264
204.769
221.6232
274.3623
0.099834 0.172918 0.187652
130.993
134.6955
195.2427
209.2325
214.4108
272.0612
0.099834 0.172918 0.250203
150.9204
152.6668
184.7125
193.3541
236.1507
265.6896
0.099834 0.172918 -0.312754
164.3129
166.2671
176.9042
178.0742
253.73
253.9055
0.099834 0.288196 0.0
129.4427
140.4145
209.9268
232.9939
257.5093
262.7532
0.099834 0.288196 0.062551
129.444
144.3983
213.6533
233.3508
249.0872
269.0152
0.099834 0.288196 0.125102
132.9181
154.4196
217.7659
234.634
240.1625
275.0247
0.099834 0.288196 0.187652
143.0171
167.6
212.9259
222.09
251.6488
278.129
0.099834 0.288196 0.250203
158.7404
180.5989
199.919
211.0836
264.5769
277.5196
0.099834 0.288196 -0.312754
175.4006
177.988
198.6616
200.4131
272.6811
273.9529
0.099834 0.403475 0.0
158.7431
163.7607
229.14
249.1833
250.5656
270.7045
0.099834 0.403475 0.062551
156.8305
165.4964
229.1705
243.2945
254.6694
274.2344
0.099834 0.403475 0.125102
152.1347
173.4896
223.5922
235.8443
263.0887
280.3734
0.099834 0.403475 0.187652
152.4133
185.1845
210.0914
229.6984
273.183
285.3592
0.099834 0.403475 0.250203
160.8388
190.6679
200.4695
222.0739
281.3999
287.7226
0.099834 0.403475 -0.312754
174.3045
175.3839
211.5788
212.0689
286.3316
286.5313
0.099834 0.518753 0.0
163.0652
185.4983
234.8846
237.9743
258.3216
271.7643
0.099834 0.518753 0.062551
164.7168
181.3624
228.9392
238.8276
262.9541
274.3576
0.099834 0.518753 0.125102
163.2474
180.48
217.4484
236.7801
272.4985
279.9934
0.099834 0.518753 0.187652
158.5974
190.2449
202.8
231.7074
281.1836
285.7394
0.099834 0.518753 0.250203
161.3553
186.2057
202.7337
224.2232
286.5144
289.8935
0.099834 0.518753 -0.312754
170.0349
172.7735
214.2307
214.6643
288.71
290.926
0.199668 0.345836 0.0
160.5926
179.4399
223.9226
250.6589
257.5398
261.4122
0.199668 0.345836 0.062551
156.7594
182.159
228.9097
241.8921
257.5689
267.9656
0.199668 0.345836 0.125102
150.9124
189.5472
227.4793
237.1035
259.4171
275.7202
0.199668 0.345836 0.187652
150.5197
198.1685
212.7217
238.5959
266.4422
280.924
0.199668 0.345836 0.250203
158.1685
189.3329
215.1816
233.7337
274.9581
282.7734
0.199668 0.345836 -0.312754
171.526
173.1354
225.0365
225.6891
280.7849
280.7955
0.199668 0.461114 0.0
186.3728
197.4944
237.5977
239.0264
257.8789
270.7169
0.199668 0.461114 0.062551
179.5914
200.8903
230.0823
244.2172
261.9346
271.7395
0.199668 0.461114 0.125102
167.9194
207.3204
217.0877
250.8545
267.3458
276.0826
0.199668 0.461114 0.187652
159.9584
198.4101
219.2532
250.9911
274.0879
281.3839
0.199668 0.461114 0.250203
159.9871
181.6685
229.3546
246.2962
280.1375
284.5157
0.199668 0.461114 -0.312754
167.3013
168.3072
238.7121
238.8929
283.5357
284.3618
0.199668 0.576393 0.0
198.6054
200.6738
229.7666
248.3063
254.0715
273.7005
0.199668 0.576393 0.062551
189.9695
205.6279
222.5622
252.4267
258.9542
274.2479
0.199668 0.576393 0.125102
176.7117
208.8263
213.0452
255.6959
268.5338
276.927
0.199668 0.576393 0.187652
165.6376
193.2239
222.5191
253.9431
277.1365
281.2087
0.199668 0.576393 0.250203
161.4829
177.9654
232.5063
248.8732
282.5902
284.5234
0.199668 0.576393 -0.312754
165.1598
167.1735
241.392
241.7379
284.2199
285.8903
0.299502 0.518753 0.0
205.8208
222.7118
224.4343
245.6096
254.5713
276.43
0.299502 0.518753 0.062551
198.7605
216.9463
225.4976
251.3524
259.7974
275.6103
0.299502 0.518753 0.125102
185.0116
202.9064
231.4639
261.1887
268.644
273.6175
0.299502 0.518753 0.187652
172.1155
187.3208
239.6144
265.7338
274.0325
275.7597
0.299502 0.518753 0.250203
164.4573
173.4621
248.1434
262.0069
278.3669
279.7976
0.299502 0.518753 -0.312754
164.6715
165.1293
255.7316
255.8841
280.4684
280.7426
P	=	499.89	V	=	123.19478	E	=	-655.47321516
0.0 0.0 0.0
-0.0
-0.0
0.0
240.8857
240.8857
398.8734
0.0 0.0 0.06254
37.6179
37.6179
79.2409
238.0643
238.0643
396.6571
0.0 0.0 0.125079
73.562
73.562
154.238
229.3073
229.3073
389.5099
0.0 0.0 0.187619
107.0705
107.0705
214.2023
214.2023
221.2557
376.0171
0.0 0.0 0.250159
138.2746
138.2746
193.0734
193.0734
277.5586
354.1431
0.0 0.0 -0.312698
167.2324
167.2324
167.2338
167.2338
321.7914
321.8064
0.0 0.115265 0.0
67.5927
75.1809
141.1536
250.6427
268.3157
393.2673
0.0 0.115265 0.06254
84.684
85.6833
155.7219
248.2484
265.4578
391.361
0.0 0.115265 0.125079
106.8362
116.1645
194.9357
240.6907
256.6937
385.2413
0.0 0.115265 0.187619
133.0516
144.6728
227.3311
242.0155
244.0513
373.7017
0.0 0.115265 0.250159
159.6075
171.8457
208.3716
222.2162
290.1162
354.9175
0.0 0.115265 -0.312698
185.1685
185.2122
197.9498
198.5474
327.135
327.6128
0.0 0.23053 0.0
130.5074
135.5012
252.8145
271.0997
320.899
377.6378
0.0 0.23053 0.06254
136.8999
141.59
260.3533
269.4564
316.4826
377.8558
0.0 0.23053 0.125079
154.5878
157.228
263.9527
280.0023
304.0725
377.4041
0.0 0.23053 0.187619
177.4166
178.9561
253.6381
285.2128
306.1841
373.9485
0.0 0.23053 0.250159
198.788
206.2302
238.4287
262.4307
331.7828
365.4405
0.0 0.23053 -0.312698
219.5303
219.6552
234.2041
236.3301
350.8327
352.6297
0.0 0.345794 0.0
171.7544
184.2711
288.642
320.0995
355.4686
359.9841
0.0 0.345794 0.06254
176.6878
184.2364
287.2381
325.3267
341.2314
371.5275
0.0 0.345794 0.125079
187.3208
189.8638
282.59
318.8797
341.8622
381.5149
0.0 0.345794 0.187619
198.1503
207.6791
274.0201
295.9525
358.5754
387.27
0.0 0.345794 0.250159
217.5092
226.9076
261.3252
270.1483
373.7089
388.0195
0.0 0.345794 -0.312698
242.4652
243.3844
245.1383
245.3644
383.2181
384.1585
0.0 0.461059 0.0
185.4674
224.433
298.2364
332.589
349.3408
374.7955
0.0 0.461059 0.06254
189.8118
220.3071
296.5101
325.084
355.6411
379.6687
0.0 0.461059 0.125079
201.8768
212.9398
291.3652
308.6748
369.1664
388.8634
0.0 0.461059 0.187619
211.7118
219.0671
282.9079
287.4072
383.1611
396.8552
0.0 0.461059 0.250159
221.444
238.0891
263.2482
271.0895
393.7305
401.1631
0.0 0.461059 -0.312698
239.1559
240.7254
255.8934
256.0495
399.5293
400.5094
0.0 -0.576324 0.0
187.6632
241.6251
301.0489
320.7646
356.6879
376.3831
0.0 -0.576324 0.06254
191.7992
235.5388
299.07
315.1598
362.8454
380.6629
0.0 -0.576324 0.125079
203.5327
223.8671
293.4575
301.0947
376.1719
389.6912
0.0 -0.576324 0.187619
217.3787
220.6945
281.8255
284.7572
389.4121
398.1199
0.0 -0.576324 0.250159
222.191
239.932
259.6127
273.0433
398.8307
403.1771
0.0 -0.576324 -0.312698
236.5402
239.3137
257.9993
258.0018
402.5226
404.467
0.099822 0.172897 0.0
114.4295
130.6585
219.2603
272.7918
303.2929
382.6249
0.099822 0.172897 0.06254
122.2901
136.8686
228.3449
271.2522
299.6824
381.7836
0.099822 0.172897 0.125079
142.2875
152.6876
250.0548
267.9656
289.1012
378.8087
0.099822 0.172897 0.187619
168.129
172.9806
251.7135
272.3587
286.9038
372.3972
0.099822 0.172897 0.250159
193.8704
195.3986
237.6771
250.9644
316.827
360.7342
0.099822 0.172897 -0.312698
210.624
211.9105
229.286
230.0848
342.1977
342.3496
0.099822 0.288162 0.0
166.8884
181.112
275.1341
311.5533
342.2055
363.5489
0.099822 0.288162 0.06254
166.9781
186.4694
279.1921
312.9185
333.4155
368.9602
0.099822 0.288162 0.125079
171.7132
199.6413
283.3518
312.6216
324.1729
375.9233
0.099822 0.288162 0.187619
185.0972
216.3944
277.7267
293.3103
339.3693
379.1595
0.099822 0.288162 0.250159
205.9054
232.4844
262.1366
275.092
356.8463
377.212
0.099822 0.288162 -0.312698
227.9724
229.8695
258.8027
260.2174
369.4512
370.3516
0.099822 0.403427 0.0
206.4703
211.7329
300.7297
340.3289
340.4611
367.5982
0.099822 0.403427 0.06254
203.4247
215.3507
300.8696
329.565
347.2062
373.5741
0.099822 0.403427 0.125079
198.2358
226.1536
295.4166
315.7209
358.2249
383.2959
0.099822 0.403427 0.187619
199.4143
241.1175
278.9914
304.2322
371.9277
390.6322
0.099822 0.403427 0.250159
210.727
249.3753
264.6438
292.3146
383.7246
393.604
0.099822 0.403427 -0.312698
229.1444
230.0525
277.7139
278.1106
391.2017
391.3297
0.099822 0.518691 0.0
213.6157
241.575
310.4277
320.5372
352.1103
375.8501
0.099822 0.518691 0.06254
215.0995
237.8425
303.9812
320.0371
358.3245
379.3601
0.099822 0.518691 0.125079
213.2991
238.2807
289.0537
316.4712
371.6042
387.2367
0.099822 0.518691 0.187619
208.9342
250.5248
269.7065
308.8075
384.7863
395.0133
0.099822 0.518691 0.250159
213.1764
247.0771
267.7086
297.7782
394.1783
399.7433
0.099822 0.518691 -0.312698
226.1227
227.9617
283.6113
284.0004
398.6286
400.1447
0.199644 0.345794 0.0
207.0112
233.4856
294.4917
342.9554
350.4231
350.8289
0.199644 0.345794 0.06254
202.4723
237.0396
300.607
327.2215
350.9295
363.5261
0.199644 0.345794 0.125079
195.6646
246.4167
305.8635
310.6193
354.3205
375.7419
0.199644 0.345794 0.187619
195.787
256.6136
285.0825
312.9109
363.397
383.4471
0.199644 0.345794 0.250159
206.2451
247.6408
283.5054
306.6666
374.5318
385.8515
0.199644 0.345794 -0.312698
224.7173
225.8837
295.3145
295.9232
382.7064
382.7169
0.199644 0.461059 0.0
241.4941
259.7925
316.4229
320.1684
348.8523
371.6987
0.199644 0.461059 0.06254
233.2356
264.2015
308.1201
324.1813
355.9697
372.8753
0.199644 0.461059 0.125079
218.99
271.6332
291.0255
332.7982
365.6969
378.1835
0.199644 0.461059 0.187619
209.3828
261.5429
291.4413
333.9544
375.0771
385.4919
0.199644 0.461059 0.250159
209.7939
239.6179
304.3915
327.8059
383.6039
389.7265
0.199644 0.461059 -0.312698
220.348
221.0712
317.2593
317.4116
388.6728
389.2338
0.199644 0.576324 0.0
258.9574
265.2054
306.4336
329.4961
344.0701
377.9153
0.199644 0.576324 0.06254
247.7079
272.4676
295.6282
336.452
350.617
378.6242
0.199644 0.576324 0.125079
230.9166
276.4122
283.0857
342.4655
364.3097
381.8541
0.199644 0.576324 0.187619
217.2857
255.2313
296.1751
340.878
377.4241
387.16
0.199644 0.576324 0.250159
212.4839
234.7479
310.1601
333.758
386.5647
391.0042
0.199644 0.576324 -0.312698
218.2845
219.6521
322.9945
323.2897
390.4712
391.6115
0.299467 0.518691 0.0
268.7304
297.5711
297.715
327.1045
341.3195
379.8514
0.299467 0.518691 0.06254
259.602
286.6011
302.0875
335.2776
349.2797
378.594
0.299467 0.518691 0.125079
241.8872
267.3697
310.2895
349.6657
363.0587
375.5434
0.299467 0.518691 0.187619
225.4723
246.5402
321.528
357.8553
374.3767
374.6251
0.299467 0.518691 0.250159
215.8978
228.176
333.6225
353.9454
379.321
380.9026
0.299467 0.518691 -0.312698
216.6028
216.9471
344.7591
344.941
382.2716
382.449
P	=	999.81	V	=	112.57439	E	=	-655.42037487
0.0 0.0 0.0
-0.0
-0.0
-0.0
275.4472
275.4472
475.6127
0.0 0.0 0.062544
42.9671
42.9671
92.0343
272.2123
272.2123
472.206
0.0 0.0 0.125087
83.967
83.967
179.4327
262.1558
262.1558
461.8109
0.0 0.0 0.187631
122.1402
122.1402
244.7837
244.7837
257.9519
443.6675
0.0 0.0 0.250175
157.7151
157.7151
220.4851
220.4851
324.3303
416.1246
0.0 0.0 -0.312718
190.8292
190.8292
190.8328
190.8328
376.9109
376.9862
0.0 0.115275 0.0
76.8509
86.2526
164.4496
287.2611
308.1277
468.4003
0.0 0.115275 0.062544
96.8573
97.4504
181.6351
284.393
304.7744
465.5007
0.0 0.115275 0.125087
121.844
132.4216
227.3692
275.4516
294.5668
456.6592
0.0 0.115275 0.187631
151.7252
165.3196
259.9008
277.5194
284.6342
441.1248
0.0 0.115275 0.250175
182.1707
196.5348
238.0763
254.496
338.9242
417.3269
0.0 0.115275 -0.312718
211.4949
211.5208
226.4963
227.1428
383.4312
383.75
0.0 0.230549 0.0
148.7635
155.672
295.2462
312.0956
371.3661
448.1954
0.0 0.230549 0.062544
156.2562
162.3742
304.1497
309.8693
366.2176
447.9553
0.0 0.230549 0.125087
176.6688
179.7294
302.9005
327.0453
351.8414
446.3262
0.0 0.230549 0.187631
202.6168
204.9118
290.5998
329.1139
357.9794
441.0179
0.0 0.230549 0.250175
227.2046
236.6428
273.0563
302.1735
387.8841
429.8633
0.0 0.230549 -0.312718
251.2517
251.4036
269.2851
271.4425
411.7211
412.9247
0.0 0.345824 0.0
197.7167
210.8161
333.615
374.9193
419.3625
420.339
0.0 0.345824 0.062544
203.1908
211.3067
331.6815
380.6325
400.07
436.7171
0.0 0.345824 0.125087
215.7602
217.8474
325.6919
371.5858
401.2523
449.0697
0.0 0.345824 0.187631
228.6568
237.9914
315.2726
343.9322
420.7378
455.947
0.0 0.345824 0.250175
250.975
260.0614
300.371
312.9684
438.5744
456.5685
0.0 0.345824 -0.312718
280.0256
281.3052
281.4306
281.5862
450.538
451.1273
0.0 0.461098 0.0
213.9778
257.8743
345.6145
389.5297
410.0021
441.7906
0.0 0.461098 0.062544
218.9166
253.6912
343.5346
380.3102
417.623
447.9464
0.0 0.461098 0.125087
232.5852
246.5242
337.3047
360.486
433.893
459.4123
0.0 0.461098 0.187631
245.8736
252.0605
327.0222
335.0373
450.993
468.9907
0.0 0.461098 0.250175
257.075
273.7844
306.3476
312.7451
464.2069
473.6593
0.0 0.461098 -0.312718
278.1675
279.2469
294.6004
294.7625
471.7003
472.3177
0.0 -0.576373 0.0
216.7552
278.4038
349.1939
374.1082
418.7399
445.8524
0.0 -0.576373 0.062544
221.557
271.9558
346.9344
367.7722
426.1184
450.9943
0.0 -0.576373 0.125087
235.0154
259.5926
340.3568
351.5905
442.3636
461.8989
0.0 -0.576373 0.187631
252.873
254.4876
329.0017
329.8205
458.7748
471.933
0.0 -0.576373 0.250175
258.6914
276.3919
302.6883
315.4779
470.8238
477.4484
0.0 -0.576373 -0.312718
275.9263
278.2534
297.2723
297.5618
476.5461
477.726
0.099831 0.172912 0.0
130.3099
150.0812
255.085
314.7189
350.0428
454.6527
0.099831 0.172912 0.062544
139.2164
156.8926
265.5672
312.9124
345.8047
453.2055
0.099831 0.172912 0.125087
162.1573
174.5108
288.9825
310.6815
333.3476
448.5031
0.099831 0.172912 0.187631
192.0254
197.5757
288.2186
313.6123
335.422
439.3949
0.099831 0.172912 0.250175
221.7556
223.3455
272.2562
288.4945
370.6359
424.1343
0.099831 0.172912 -0.312718
240.9446
241.9718
263.3986
264.0984
401.1341
401.2973
0.099831 0.288186 0.0
190.5592
208.3392
317.8121
364.3164
397.9213
429.8644
0.099831 0.288186 0.062544
190.9826
214.2622
321.9479
366.0827
388.3185
435.3641
0.099831 0.288186 0.125087
196.8459
228.9643
325.8689
363.1522
380.3415
442.9341
0.099831 0.288186 0.187631
212.385
247.9833
319.4495
339.5544
398.1025
446.2594
0.099831 0.288186 0.250175
236.2448
266.3479
302.4114
317.016
418.4337
443.4721
0.099831 0.288186 -0.312718
261.8416
263.3441
298.3509
299.6117
433.9021
434.4965
0.099831 0.403461 0.0
238.0901
242.6263
347.6997
399.4893
399.5752
431.6045
0.099831 0.403461 0.062544
233.731
248.0456
347.7839
385.3268
408.3196
439.1619
0.099831 0.403461 0.125087
228.3387
260.7425
341.6688
367.5895
421.325
451.2513
0.099831 0.403461 0.187631
230.2251
277.7578
322.9789
352.8391
437.5415
460.1723
0.099831 0.403461 0.250175
243.1069
286.9564
306.5863
338.2642
451.6739
463.6422
0.099831 0.403461 -0.312718
264.5017
265.0118
321.0634
321.4841
460.7112
460.8139
0.099831 0.518736 0.0
246.8407
277.9022
359.8346
373.7944
413.1308
444.4978
0.099831 0.518736 0.062544
248.2076
274.3469
352.5431
372.9527
420.5779
448.7191
0.099831 0.518736 0.125087
245.7883
276.187
335.0765
368.6524
436.6417
458.1619
0.099831 0.518736 0.187631
241.4425
290.2586
312.507
359.3907
452.9734
467.2982
0.099831 0.518736 0.250175
246.6536
285.9658
310.3138
345.913
465.0762
472.4486
0.099831 0.518736 -0.312718
262.089
263.5209
328.993
329.2067
471.2603
472.2155
0.199661 0.345824 0.0
236.843
269.2454
340.3704
402.9519
409.2902
412.5821
0.199661 0.345824 0.062544
232.06
273.2003
347.254
382.1516
413.34
426.2215
0.199661 0.345824 0.125087
225.1118
283.6066
355.8451
358.5821
417.6361
441.2284
0.199661 0.345824 0.187631
225.8974
294.5251
331.1234
361.4227
428.1847
450.6845
0.199661 0.345824 0.250175
237.9078
284.3763
328.4115
354.4599
441.0028
453.8342
0.199661 0.345824 -0.312718
258.8681
259.7701
341.6024
342.109
450.3726
450.436
0.199661 0.461098 0.0
277.089
300.6898
366.6732
373.286
408.2741
438.6218
0.199661 0.461098 0.062544
267.7256
305.726
357.8432
376.326
417.3664
439.8811
0.199661 0.461098 0.125087
251.8821
313.5319
337.7591
386.4007
430.1274
445.4978
0.199661 0.461098 0.187631
241.6715
300.6709
338.8294
388.2867
441.8186
453.8369
0.199661 0.461098 0.250175
242.5712
275.8945
353.7508
381.2578
452.2132
459.0485
0.199661 0.461098 -0.312718
254.5875
255.129
368.8423
368.9671
458.3023
458.685
0.199661 0.576373 0.0
297.8911
307.4726
355.5775
382.4007
402.7245
446.5803
0.199661 0.576373 0.062544
284.7137
316.2294
341.9631
391.2593
410.4797
447.4154
0.199661 0.576373 0.125087
265.2382
318.5396
329.1602
399.1138
427.0234
450.9784
0.199661 0.576373 0.187631
250.2102
293.7323
344.7004
397.8113
443.3334
456.903
0.199661 0.576373 0.250175
245.582
270.6638
361.2204
389.4442
455.1271
461.3059
0.199661 0.576373 -0.312718
252.6097
253.748
376.58
376.7944
460.723
461.4838
0.299492 0.518736 0.0
309.1453
344.6007
346.4972
380.1761
397.9899
447.9567
0.299492 0.518736 0.062544
298.1918
330.5761
352.1075
390.0317
407.6747
446.4585
0.299492 0.518736 0.125087
277.4064
306.9098
361.992
407.5217
424.4985
442.7622
0.299492 0.518736 0.187631
259.144
282.6793
375.3543
418.2294
438.7074
441.1173
0.299492 0.518736 0.250175
249.2968
262.6118
389.8119
414.3687
446.1899
447.3986
0.299492 0.518736 -0.312718
250.4061
250.7175
403.2896
403.5012
449.6543
449.7905
P	=	1499.68	V	=	105.27433	E	=	-655.35897953
0.0 0.0 0.0
-0.0
0.0
0.0
302.7774
302.7774
537.683
0.0 0.0 0.062541
47.1194
47.1194
102.3297
299.2284
299.2284
533.3075
0.0 0.0 0.125082
92.0611
92.0611
199.6445
288.1694
288.1694
520.2359
0.0 0.0 0.187623
133.9079
133.9079
269.0115
269.0115
287.2995
498.199
0.0 0.0 0.250164
172.9724
172.9724
242.175
242.175
361.6911
465.8932
0.0 0.0 -0.312705
209.4396
209.4396
209.4433
209.4433
421.0542
421.0867
0.0 0.115289 0.0
84.3125
94.3347
182.7488
315.9657
339.45
529.1355
0.0 0.115289 0.062541
106.0486
107.1237
201.9039
312.7882
335.7449
525.3722
0.0 0.115289 0.125082
133.5165
145.4892
253.0732
302.8958
324.3976
514.1668
0.0 0.115289 0.187623
166.3375
181.5663
285.6966
305.3974
317.1618
495.2118
0.0 0.115289 0.250164
199.8198
215.9104
261.5663
279.7889
378.0416
467.2439
0.0 0.115289 -0.312705
232.1463
232.227
248.9691
249.4651
428.4239
428.672
0.0 0.230577 0.0
163.2362
170.5499
328.5777
343.9716
411.0733
505.1577
0.0 0.230577 0.062541
171.7845
177.9204
338.4005
341.4743
405.4022
504.4715
0.0 0.230577 0.125082
194.4805
197.0548
333.6416
363.7904
389.507
501.6961
0.0 0.230577 0.187623
222.3315
225.639
319.8687
363.5717
398.8875
494.6684
0.0 0.230577 0.250164
249.5275
260.7123
300.3084
333.3516
432.5555
481.1993
0.0 0.230577 -0.312705
276.1527
276.2625
296.9683
299.0172
460.0879
461.0982
0.0 0.345866 0.0
217.2833
231.5923
368.7934
418.0646
468.2222
470.8391
0.0 0.345866 0.062541
223.3159
232.4625
366.6004
424.1222
446.966
489.023
0.0 0.345866 0.125082
237.8043
239.5007
359.7902
413.5511
448.0382
503.2313
0.0 0.345866 0.187623
252.2812
261.7628
347.9593
382.2619
469.7317
510.9499
0.0 0.345866 0.250164
277.1859
286.2138
331.1209
347.1799
489.9613
511.2883
0.0 0.345866 -0.312705
309.8831
309.996
310.0619
311.3463
503.9708
504.5053
0.0 0.461154 0.0
236.0808
284.0177
383.1044
435.1947
458.0993
495.2272
0.0 0.461154 0.062541
241.5633
279.8258
380.7605
424.6077
466.8824
502.3145
0.0 0.461154 0.125082
256.6442
272.7349
373.7178
402.112
485.2835
515.6681
0.0 0.461154 0.187623
272.5254
278.0582
361.9915
373.3645
504.7547
526.6959
0.0 0.461154 0.250164
285.1127
302.0196
340.9397
345.6967
520.0945
531.7572
0.0 0.461154 -0.312705
309.0397
310.0728
325.2822
325.3151
529.1329
529.7196
0.0 -0.576443 0.0
239.6372
307.2682
387.497
416.6965
468.2656
501.2319
0.0 -0.576443 0.062541
244.9554
300.6817
384.9967
409.7793
476.5163
507.0746
0.0 -0.576443 0.125082
259.7785
288.0048
377.6174
391.8944
494.952
519.5356
0.0 -0.576443 0.187623
281.1308
281.1878
365.6017
366.6184
513.9328
530.9089
0.0 -0.576443 0.250164
287.7621
305.2354
337.0021
349.1628
528.1885
536.8617
0.0 -0.576443 -0.312705
307.0453
309.4709
328.6374
328.7156
535.4093
536.54
0.099843 0.172933 0.0
142.9504
164.4949
283.0033
347.5695
386.7504
512.827
0.099843 0.172933 0.062541
152.9222
171.9784
294.4983
345.7016
382.0091
510.8063
0.099843 0.172933 0.125082
178.3313
191.354
319.1173
344.7437
368.0613
504.5077
0.099843 0.172933 0.187623
211.1328
216.7664
317.0888
345.9679
373.8175
493.0262
0.099843 0.172933 0.250164
243.5125
245.4017
299.5354
317.9292
413.472
474.7662
0.099843 0.172933 -0.312705
264.66
265.5571
290.1792
290.8106
448.21
448.2666
0.099843 0.288221 0.0
209.1185
228.8311
350.8811
405.9047
441.9427
483.3573
0.099843 0.288221 0.062541
209.7768
235.3578
355.2111
407.8697
431.8013
488.9718
0.099843 0.288221 0.125082
216.4246
251.5729
359.2848
403.1491
424.5406
496.9806
0.099843 0.288221 0.187623
233.5855
272.5946
352.3782
376.3749
444.3142
500.2141
0.099843 0.288221 0.250164
259.9551
292.8832
334.2138
350.2689
467.1757
496.4448
0.099843 0.288221 -0.312705
288.3948
289.7549
329.5314
330.6695
485.0745
485.5841
0.099843 0.40351 0.0
262.331
266.7015
384.6024
446.0732
447.2298
482.5348
0.099843 0.40351 0.062541
257.1742
273.3501
384.7057
430.1308
456.7791
491.4659
0.099843 0.40351 0.125082
251.5209
287.5451
378.3869
409.4912
471.2019
505.7343
0.099843 0.40351 0.187623
253.7993
306.2901
358.5485
391.7542
489.3241
516.0746
0.099843 0.40351 0.250164
268.1603
316.7966
340.0909
374.7198
505.4166
519.7804
0.099843 0.40351 -0.312705
292.3866
292.746
355.3673
355.7258
516.0189
516.1189
0.099843 0.518799 0.0
272.7585
306.3365
399.0363
416.3864
461.6864
499.1071
0.099843 0.518799 0.062541
274.0577
303.1551
391.1787
415.404
470.1054
503.8786
0.099843 0.518799 0.125082
271.4639
306.0451
372.1276
410.464
488.3562
514.7211
0.099843 0.518799 0.187623
267.1692
321.4736
347.2467
399.7491
507.1402
525.1563
0.099843 0.518799 0.250164
273.0306
317.1907
344.0031
384.1635
521.3513
530.7259
0.099843 0.518799 -0.312705
290.424
291.8669
364.7931
365.1684
528.9836
529.8953
0.199686 0.345866 0.0
260.0356
296.6472
376.1127
451.2787
455.6843
461.7006
0.199686 0.345866 0.062541
254.9373
300.9591
383.6455
426.3529
462.5966
476.6479
0.199686 0.345866 0.125082
247.5019
312.3017
396.135
396.7881
467.4444
494.3045
0.199686 0.345866 0.187623
248.4589
324.2357
369.0073
399.5215
479.0762
505.2167
0.199686 0.345866 0.250164
261.9596
314.1168
364.1189
392.044
493.3818
508.5138
0.199686 0.345866 -0.312705
285.7745
286.6077
378.071
378.4913
504.2053
504.2187
0.199686 0.461154 0.0
304.8266
332.4338
406.2148
415.8816
455.5167
491.6073
0.199686 0.461154 0.062541
294.8384
337.9758
398.0316
417.7928
466.2201
492.9923
0.199686 0.461154 0.125082
277.8779
346.4289
376.5536
428.8595
481.3294
499.3623
0.199686 0.461154 0.187623
266.7764
333.5738
376.4311
431.1961
494.6212
508.9943
0.199686 0.461154 0.250164
267.7834
306.0321
392.6099
423.4035
506.43
514.767
0.199686 0.461154 -0.312705
281.6429
282.1488
409.4439
409.6176
513.6153
513.9738
0.199686 0.576443 0.0
328.4221
340.4741
394.7729
424.3323
449.3162
500.9136
0.199686 0.576443 0.062541
314.2158
350.4723
379.5945
434.9038
457.9818
501.838
0.199686 0.576443 0.125082
293.3504
353.8989
365.2199
444.442
476.8301
505.9191
0.199686 0.576443 0.187623
277.0406
326.4177
382.6895
443.1352
495.7209
512.715
0.199686 0.576443 0.250164
271.7616
300.2949
401.3039
433.5077
509.5663
517.5051
0.199686 0.576443 -0.312705
279.7092
280.8559
418.7338
419.0259
516.4683
517.1909
0.299529 0.518799 0.0
340.8979
381.925
384.8289
422.0319
442.9621
501.7344
0.299529 0.518799 0.062541
329.3058
366.4717
391.4188
433.2564
454.1613
499.9513
0.299529 0.518799 0.125082
307.106
340.9057
402.4762
453.459
473.9952
495.6129
0.299529 0.518799 0.187623
287.1201
314.2598
417.468
465.9568
490.7359
493.6531
0.299529 0.518799 0.250164
275.9096
291.4083
433.8827
461.8485
499.2218
500.7255
0.299529 0.518799 -0.312705
277.1891
277.4934
449.2954
449.4917
503.2026
503.2928
P	=	1999.79	V	=	99.74455	E	=	-655.29357214
0.0 0.0 0.0
-0.0
-0.0
0.0
325.4111
325.4111
590.3801
0.0 0.0 0.062534
50.6481
50.6481
110.6716
321.63
321.63
585.1685
0.0 0.0 0.125069
98.8606
98.8606
216.1392
309.7877
309.7877
569.78
0.0 0.0 0.187603
143.6708
143.6708
289.1498
289.1498
311.4793
544.3515
0.0 0.0 0.250138
185.5448
185.5448
260.1455
260.1455
392.7698
507.8651
0.0 0.0 -0.312672
224.7852
224.7852
224.795
224.795
458.0104
458.1262
0.0 0.1153 0.0
90.07
101.1214
198.1466
339.8474
365.4294
580.6422
0.0 0.1153 0.062534
113.7157
114.5012
218.9969
336.4258
361.4283
576.1608
0.0 0.1153 0.125069
143.1991
155.876
274.4929
325.7337
349.1841
562.9396
0.0 0.1153 0.187603
178.443
194.8226
307.1311
328.5652
344.1486
541.0168
0.0 0.1153 0.250138
214.4472
231.7988
281.0374
300.7491
410.6694
509.3717
0.0 0.1153 -0.312672
249.2665
249.3471
267.4447
267.8841
466.16
466.4463
0.0 0.2306 0.0
174.6374
183.1804
356.7738
370.6382
444.1535
553.3231
0.0 0.2306 0.062534
183.7809
191.0517
367.4202
367.853
438.0344
552.3181
0.0 0.2306 0.125069
208.4924
211.5333
359.1979
394.746
421.021
548.5521
0.0 0.2306 0.187603
238.7346
242.5398
344.1636
392.2855
433.2756
539.9758
0.0 0.2306 0.250138
268.1052
280.749
322.9815
359.2136
470.023
524.4312
0.0 0.2306 -0.312672
296.8573
297.016
320.1056
321.7117
500.6972
501.654
0.0 0.345899 0.0
234.1227
248.3468
398.2157
454.7183
508.4853
514.2079
0.0 0.345899 0.062534
240.5423
249.4772
395.7496
460.9057
486.4773
533.1444
0.0 0.345899 0.125069
255.8194
257.8467
388.1718
448.6956
487.7378
548.8508
0.0 0.345899 0.187603
272.0461
281.7651
375.1586
414.2762
511.1435
557.2382
0.0 0.345899 0.250138
299.4312
308.1453
356.8037
375.5829
533.2798
557.3378
0.0 0.345899 -0.312672
333.8702
333.9783
335.2258
336.1612
548.9842
549.4772
0.0 0.461199 0.0
255.3206
305.4662
414.3655
473.5533
499.0262
540.6519
0.0 0.461199 0.062534
261.1736
301.4741
411.8217
461.773
508.6176
548.5157
0.0 0.461199 0.125069
277.3031
294.7186
404.1332
437.0124
528.6618
563.3922
0.0 0.461199 0.187603
295.0384
300.1936
391.2425
405.4647
550.1329
575.5591
0.0 0.461199 0.250138
308.8322
325.8908
369.8904
373.3226
567.3556
580.8835
0.0 0.461199 -0.312672
335.0495
335.9558
351.0193
351.101
577.772
578.231
0.0 -0.576499 0.0
259.6442
331.1001
419.3871
452.4242
510.4349
548.5233
0.0 -0.576499 0.062534
265.37
324.5268
416.7292
445.0547
519.283
554.9212
0.0 -0.576499 0.125069
281.2375
311.7872
408.7745
425.7916
539.3577
568.6403
0.0 -0.576499 0.187603
303.9793
304.9839
395.6026
398.2924
560.4427
581.1037
0.0 -0.576499 0.250138
312.2245
329.7136
365.9001
377.4625
576.6626
587.3569
0.0 -0.576499 -0.312672
333.5672
335.4297
354.9282
355.1173
585.4076
586.3057
0.099853 0.17295 0.0
152.8454
176.6431
306.484
375.1409
417.2709
562.0613
0.099853 0.17295 0.062534
163.6037
184.6125
318.7885
373.2468
412.1509
559.5599
0.099853 0.17295 0.125069
191.1118
205.3298
344.0348
373.5888
397.0223
551.9178
0.099853 0.17295 0.187603
226.6125
232.6539
341.0004
372.9514
406.049
538.4048
0.099853 0.17295 0.250138
261.5348
263.5531
322.1669
342.3937
449.3692
517.5109
0.099853 0.17295 -0.312672
284.3145
285.1085
312.388
312.9337
487.6789
487.8724
0.099853 0.288249 0.0
223.965
246.2251
378.5747
441.1132
478.8009
528.4753
0.099853 0.288249 0.062534
224.7864
253.1374
382.9725
443.227
468.2665
534.1874
0.099853 0.288249 0.125069
232.2734
270.4685
387.0103
436.6021
462.0631
542.4786
0.099853 0.288249 0.187603
251.1283
293.1047
379.6733
407.1031
483.4284
545.5863
0.099853 0.288249 0.250138
279.8274
314.991
360.6407
377.9798
508.2676
540.9986
0.099853 0.288249 -0.312672
310.578
311.6916
355.6118
356.547
528.1401
528.6229
0.099853 0.403549 0.0
283.0964
286.3429
415.3917
485.5705
487.2828
525.6536
0.099853 0.403549 0.062534
276.7162
294.598
415.4686
467.7073
497.8803
535.6345
0.099853 0.403549 0.125069
270.8882
310.1427
408.8921
444.5117
513.4911
551.6191
0.099853 0.403549 0.187603
273.6952
330.3092
388.0256
424.2581
533.1814
563.1055
0.099853 0.403549 0.250138
289.3945
341.6641
368.105
405.1927
550.8888
567.0634
0.099853 0.403549 -0.312672
315.6917
316.0555
384.1262
384.4254
562.7488
562.8183
0.099853 0.518849 0.0
295.0971
329.7999
431.6443
452.0968
502.9556
545.6209
0.099853 0.518849 0.062534
296.1968
327.1784
423.3478
450.8754
512.0376
550.8391
0.099853 0.518849 0.125069
293.1644
331.2999
402.944
445.3939
531.9424
562.7769
0.099853 0.518849 0.187603
288.8256
347.9135
376.1457
433.5241
552.794
574.2231
0.099853 0.518849 0.250138
295.2378
343.2555
372.441
416.2326
568.9303
580.0947
0.099853 0.518849 -0.312672
314.3886
315.5132
395.0276
395.2598
577.9487
578.6759
0.199705 0.345899 0.0
278.9111
319.8637
406.0278
491.8971
494.5837
503.441
0.199705 0.345899 0.062534
273.6356
324.4181
414.0139
463.3298
504.4965
518.9529
0.199705 0.345899 0.125069
266.0227
336.4146
427.3319
430.8588
509.8906
538.7023
0.199705 0.345899 0.187603
267.3973
349.02
400.4896
431.1308
522.4241
550.8459
0.199705 0.345899 0.250138
282.245
338.7149
394.0252
423.3213
537.842
554.442
0.199705 0.345899 -0.312672
308.3335
308.9803
408.5254
408.887
549.6217
549.6895
0.199705 0.461199 0.0
327.6935
359.3772
439.2866
451.5606
495.3444
536.538
0.199705 0.461199 0.062534
317.2655
365.2322
431.4078
452.5095
507.3285
538.0068
0.199705 0.461199 0.125069
299.4345
373.9992
408.6481
464.2335
524.4594
544.8225
0.199705 0.461199 0.187603
287.7743
360.4711
408.0314
466.953
539.302
555.3401
0.199705 0.461199 0.250138
289.0251
330.8413
425.2572
458.6144
552.3853
561.6704
0.199705 0.461199 -0.312672
304.302
304.7458
443.5105
443.6313
560.4207
560.7099
0.199705 0.576499 0.0
353.7205
368.528
427.5414
459.279
488.798
546.9358
0.199705 0.576499 0.062534
338.6559
379.4604
410.8282
471.2473
498.1169
547.9502
0.199705 0.576499 0.125069
316.4846
382.9121
395.7132
482.1317
518.7249
552.4294
0.199705 0.576499 0.187603
299.1985
353.1372
414.7501
480.9338
539.7706
559.8814
0.199705 0.576499 0.250138
293.6464
324.7573
435.0513
470.401
555.4883
565.0199
0.199705 0.576499 -0.312672
302.5043
303.4201
454.2229
454.4064
563.6625
564.2486
0.299558 0.518849 0.0
367.2568
413.0722
417.2884
457.2346
480.8134
547.0149
0.299558 0.518849 0.062534
354.9421
396.171
424.6521
469.5304
493.167
545.0212
0.299558 0.518849 0.125069
331.3067
368.5244
436.6535
491.8549
515.3185
540.2205
0.299558 0.518849 0.187603
309.9932
339.7726
452.9544
505.8638
534.173
538.0451
0.299558 0.518849 0.250138
298.0349
315.0214
470.9859
501.7215
544.0072
545.4785
0.299558 0.518849 -0.312672
299.5573
299.8344
488.0203
488.1742
548.3427
548.4346
P	=	2500.3	V	=	95.30829	E	=	-655.22595758
0.0 0.0 0.0
-0.0
0.0
0.0
345.3051
345.3051
636.7126
0.0 0.0 0.062526
53.5193
53.5193
118.2989
341.2666
341.2666
630.7827
0.0 0.0 0.125052
104.6961
104.6961
231.1149
328.6891
328.6891
613.3968
0.0 0.0 0.187578
152.522
152.522
306.9034
306.9034
333.2352
585.035
0.0 0.0 0.250104
197.2618
197.2618
276.3506
276.3506
420.4978
544.9389
0.0 0.0 -0.31263
238.9931
238.9931
238.9931
238.9931
490.8715
490.8715
0.0 0.115311 0.0
95.3457
106.8427
211.6738
360.722
388.2177
625.8884
0.0 0.115311 0.062526
120.1355
121.2955
234.0031
357.057
383.9215
620.7973
0.0 0.115311 0.125052
151.4619
165.1344
293.474
345.6502
370.8263
605.8516
0.0 0.115311 0.187578
189.1091
206.6813
325.9184
348.8173
368.0772
581.3685
0.0 0.115311 0.250104
227.613
246.226
298.3109
319.1905
439.4403
546.5585
0.0 0.115311 -0.31263
264.7121
264.7121
284.1592
284.1592
499.6189
499.6189
0.0 0.230622 0.0
184.8957
193.939
381.5314
393.7558
473.1027
595.5438
0.0 0.230622 0.062526
194.6961
202.2405
390.7565
392.8452
466.6026
594.297
0.0 0.230622 0.125052
221.0497
223.9734
381.4376
421.8129
448.6317
589.7317
0.0 0.230622 0.187578
252.9529
257.5486
365.3239
417.1966
463.3544
579.8822
0.0 0.230622 0.250104
284.3016
298.6483
342.7032
381.3398
502.5435
562.6413
0.0 0.230622 -0.31263
314.9936
314.9936
340.8014
340.8014
536.715
536.715
0.0 0.345933 0.0
248.7011
263.1594
423.6363
486.8139
543.7349
552.1193
0.0 0.345933 0.062526
255.4692
264.7012
420.9809
493.0721
521.0638
571.9093
0.0 0.345933 0.125052
272.0274
273.7516
412.8041
479.4014
522.6022
589.038
0.0 0.345933 0.187578
289.6111
299.084
398.7734
442.1789
547.4101
598.0419
0.0 0.345933 0.250104
318.8943
327.1122
379.0338
400.1102
571.0453
597.8501
0.0 0.345933 -0.31263
354.5634
354.5634
357.3541
357.3541
588.5401
588.5401
0.0 0.461243 0.0
272.2589
324.2703
441.3783
506.9586
534.7562
580.4572
0.0 0.461243 0.062526
278.3998
320.6292
438.6698
494.2031
545.2256
589.1286
0.0 0.461243 0.125052
295.3157
314.524
430.4524
467.5638
566.8501
605.5838
0.0 0.461243 0.187578
315.2192
319.3942
416.6015
433.6801
590.0444
618.7356
0.0 0.461243 0.250104
329.5264
346.5808
395.3936
397.3081
608.8389
624.0023
0.0 0.461243 -0.31263
358.118
358.118
373.4104
373.4104
620.5211
620.5211
0.0 -0.576554 0.0
277.389
351.9859
446.9575
483.4373
547.2234
589.9557
0.0 -0.576554 0.062526
283.3554
345.5799
444.1539
475.8167
556.7595
596.9834
0.0 -0.576554 0.125052
299.9237
333.0844
435.7047
455.6353
578.5173
612.0216
0.0 -0.576554 0.187578
323.7798
326.3361
421.5907
426.3039
601.4659
625.4434
0.0 -0.576554 0.250104
333.8797
350.9759
391.3416
402.0637
619.2364
631.7607
0.0 -0.576554 -0.31263
357.5124
357.5124
377.9615
377.9615
629.5798
629.5798
0.099862 0.172966 0.0
161.7915
186.9255
327.054
399.2072
443.9823
605.248
0.099862 0.172966 0.062526
173.3247
195.3787
339.985
397.3193
438.4679
602.3682
0.099862 0.172966 0.125052
202.6131
217.39
365.7143
398.8737
422.2085
593.6087
0.099862 0.172966 0.187578
240.2533
246.4848
361.8974
396.4065
434.3043
578.3015
0.099862 0.172966 0.250104
277.3325
279.3713
341.9582
363.7242
480.8726
555.0355
0.099862 0.172966 -0.31263
301.8512
301.8512
332.0365
332.0365
522.4589
522.4589
0.099862 0.288277 0.0
237.1409
261.095
402.6187
471.9695
511.053
567.9649
0.099862 0.288277 0.062526
238.2405
268.4079
407.093
474.1253
500.2106
573.8553
0.099862 0.288277 0.125052
246.485
286.8035
411.1467
465.7888
494.9405
582.4682
0.099862 0.288277 0.187578
266.5503
310.9371
403.426
433.8214
517.6134
585.4841
0.099862 0.288277 0.250104
296.9789
334.2683
383.7273
401.6999
544.0588
580.1618
0.099862 0.288277 -0.31263
330.1287
330.1287
378.5518
378.5518
566.0037
566.0037
0.099862 0.403588 0.0
301.1548
303.5511
442.0495
520.107
522.2399
563.4553
0.099862 0.403588 0.062526
293.9152
313.1985
442.111
500.5085
533.9495
574.4178
0.099862 0.403588 0.125052
288.1896
329.9006
435.3547
475.1321
550.632
592.0598
0.099862 0.403588 0.187578
291.3219
351.2517
413.7576
452.5678
571.6357
604.544
0.099862 0.403588 0.250104
307.7794
363.3229
392.6326
431.5358
590.6924
608.5313
0.099862 0.403588 -0.31263
336.0812
336.0812
409.1547
409.1547
603.6272
603.6272
0.099862 0.518899 0.0
314.7888
350.2965
459.8693
483.1389
539.0141
586.3846
0.099862 0.518899 0.062526
315.6501
348.3268
451.2191
481.7664
548.8205
592.0998
0.099862 0.518899 0.125052
312.3744
353.5986
429.7873
475.8074
570.3308
605.1943
0.099862 0.518899 0.187578
308.0935
371.069
401.5213
462.927
592.9687
617.5237
0.099862 0.518899 0.250104
314.7341
366.2133
397.2813
444.1386
610.7013
623.4286
0.099862 0.518899 -0.31263
335.8482
335.8482
421.3866
421.3866
621.1178
621.1178
0.199724 0.345933 0.0
295.4212
339.8034
432.1398
527.3839
528.5408
540.1022
0.199724 0.345933 0.062526
290.1114
344.6514
440.495
495.636
541.2788
555.9799
0.199724 0.345933 0.125052
282.4662
357.3419
454.4993
460.7429
547.0918
577.6179
0.199724 0.345933 0.187578
284.0881
370.5347
428.1267
458.5774
560.3547
590.8412
0.199724 0.345933 0.250104
299.8864
360.0437
420.0727
450.3639
576.7043
594.6386
0.199724 0.345933 -0.31263
328.1112
328.1112
435.0027
435.0027
589.3756
589.3756
0.199724 0.461243 0.0
347.5602
382.846
468.1395
482.6451
530.1546
575.9513
0.199724 0.461243 0.062526
336.8949
388.9995
460.4923
482.8106
543.3268
577.5027
0.199724 0.461243 0.125052
318.5653
398.0627
436.7945
494.961
562.297
584.7599
0.199724 0.461243 0.187578
306.4541
384.073
435.7195
497.9625
578.4501
596.0602
0.199724 0.461243 0.250104
307.7249
352.7715
453.6954
489.1334
592.6333
602.7452
0.199724 0.461243 -0.31263
324.4622
324.4622
473.1023
473.1023
601.4836
601.4836
0.199724 0.576554 0.0
375.7089
393.1675
456.005
489.6522
523.3985
587.2651
0.199724 0.576554 0.062526
360.0565
404.8307
438.0353
502.8572
533.3202
588.384
0.199724 0.576554 0.125052
336.9434
408.3679
422.3576
514.9187
555.5053
593.2717
0.199724 0.576554 0.187578
318.9341
376.757
442.7218
513.7867
578.4102
601.304
0.199724 0.576554 0.250104
313.1537
346.4739
464.4474
502.4609
595.6951
606.6664
0.199724 0.576554 -0.31263
323.136
323.136
485.1349
485.1349
605.1938
605.1938
0.299586 0.518899 0.0
390.105
440.1367
445.6378
488.1451
513.919
586.6744
0.299586 0.518899 0.062526
377.3053
422.0647
453.703
501.2948
527.268
584.4645
0.299586 0.518899 0.125052
352.6487
392.7788
466.5547
525.3702
551.4709
579.1966
0.299586 0.518899 0.187578
330.3519
362.3754
483.9719
540.5896
572.1939
576.8252
0.299586 0.518899 0.250104
317.8327
336.0903
503.3456
536.3638
583.1503
584.6312
0.299586 0.518899 -0.31263
319.7132
319.7132
521.7697
521.7697
587.8513
587.8513
P	=	2999.95	V	=	91.63178	E	=	-655.15738791
0.0 0.0 0.0
-0.0
0.0
0.0
362.5116
362.5116
677.3782
0.0 0.0 0.062515
56.1711
56.1711
124.8473
358.3041
358.3041
670.7575
0.0 0.0 0.125031
109.7853
109.7853
244.081
345.1376
345.1376
651.5064
0.0 0.0 0.187546
159.8081
159.8081
322.2036
322.2036
352.2355
620.5352
0.0 0.0 0.250061
206.6577
206.6577
289.9436
289.9436
444.8284
577.3532
0.0 0.0 -0.312576
250.5276
250.5276
250.5276
250.5276
519.6437
519.6437
0.0 0.115315 0.0
99.9668
111.8643
223.5573
378.8187
407.8959
665.5983
0.0 0.115315 0.062515
125.8477
127.2081
247.2324
374.9818
403.4207
659.923
0.0 0.115315 0.125031
158.7247
173.2712
310.1384
362.9969
389.6925
643.3825
0.0 0.115315 0.187546
198.1582
216.8039
342.18
366.4161
389.1267
616.6201
0.0 0.115315 0.250061
238.5187
258.1632
313.0018
335.0302
464.821
579.0534
0.0 0.115315 -0.312576
277.538
277.538
298.0051
298.0051
528.8541
528.8541
0.0 0.230629 0.0
193.807
203.2744
403.2429
413.8893
498.1801
632.5513
0.0 0.230629 0.062515
204.2166
212.0058
410.7128
415.2106
491.4025
631.0764
0.0 0.230629 0.125031
232.0954
234.8366
400.8335
445.5876
472.7502
625.828
0.0 0.230629 0.187546
265.2477
270.4796
383.7408
438.9601
489.9596
614.8137
0.0 0.230629 0.250061
298.167
313.5881
359.7695
400.8914
531.4443
595.9113
0.0 0.230629 -0.312576
330.486
330.486
357.9567
357.9567
567.9149
567.9149
0.0 0.345944 0.0
261.2212
275.853
445.8182
514.9385
574.5049
585.219
0.0 0.345944 0.062515
268.325
277.7431
442.988
521.2339
551.1758
605.8578
0.0 0.345944 0.125031
285.9217
287.5038
434.2722
506.0314
553.213
624.2546
0.0 0.345944 0.187546
304.6353
314.0752
419.3277
466.4225
579.3074
633.764
0.0 0.345944 0.250061
335.4641
343.5169
398.3521
421.5821
604.3122
633.2491
0.0 0.345944 -0.312576
372.4494
372.4494
376.1179
376.1179
623.028
623.028
0.0 0.461258 0.0
286.7373
340.1425
464.8977
536.0008
566.193
615.3249
0.0 0.461258 0.062515
293.1502
336.7318
462.0285
522.3722
577.3256
624.6422
0.0 0.461258 0.125031
310.8151
331.0809
453.3048
494.0206
600.251
642.3387
0.0 0.461258 0.187546
332.2608
335.9837
438.5717
457.974
624.9275
656.3673
0.0 0.461258 0.250061
347.4007
364.4852
417.2167
418.0619
645.0617
661.7701
0.0 0.461258 -0.312576
377.6164
377.6164
392.7505
392.7505
657.7547
657.7547
0.0 -0.576573 0.0
292.544
369.4638
470.9176
510.4007
579.697
626.2523
0.0 -0.576573 0.062515
298.7548
363.2069
467.9624
502.4513
589.693
633.7312
0.0 -0.576573 0.125031
316.0062
350.9375
459.0257
481.2476
612.7019
649.7662
0.0 -0.576573 0.187546
340.8851
344.3618
444.041
450.2201
637.2306
664.0046
0.0 -0.576573 0.250061
352.3828
369.3557
413.1252
423.2938
656.4404
670.5039
0.0 -0.576573 -0.312576
377.2892
377.2892
397.7691
397.7691
667.8272
667.8272
0.099865 0.172972 0.0
169.595
195.9277
344.9949
420.2328
467.0716
643.1237
0.099865 0.172972 0.062515
181.7545
204.8202
358.5272
418.4368
461.3016
639.8874
0.099865 0.172972 0.125031
212.6011
227.9352
384.5662
421.3094
444.1866
630.115
0.099865 0.172972 0.187546
252.097
258.4375
380.0518
416.8442
459.2679
613.2439
0.099865 0.172972 0.250061
290.782
293.0244
359.043
382.1374
508.58
587.936
0.099865 0.172972 -0.312576
316.4871
316.4871
348.6609
348.6609
552.9036
552.9036
0.099865 0.288286 0.0
248.5378
273.9953
423.5216
498.9921
539.1492
602.4975
0.099865 0.288286 0.062515
249.8429
281.6917
428.0868
501.1907
528.0619
608.5967
0.099865 0.288286 0.125031
258.7488
301.0261
432.1751
491.1427
523.9017
617.5634
0.099865 0.288286 0.187546
279.9001
326.331
424.088
457.0981
547.7833
620.4729
0.099865 0.288286 0.250061
311.8049
350.737
403.5984
422.6877
575.6426
614.3948
0.099865 0.288286 -0.312576
346.526
346.526
398.0879
398.0879
599.0115
599.0115
0.099865 0.403601 0.0
316.6895
318.2534
465.2853
550.3726
552.6576
596.5641
0.099865 0.403601 0.062515
308.5473
329.2078
465.3152
529.0323
565.5127
608.391
0.099865 0.403601 0.125031
302.8398
346.9205
458.3058
501.7354
583.1864
627.4409
0.099865 0.403601 0.187546
306.3683
369.2641
435.927
477.2666
605.346
640.7859
0.099865 0.403601 0.250061
323.6921
381.8001
413.8238
454.6009
625.5408
644.8501
0.099865 0.403601 -0.312576
353.4495
353.4495
430.8328
430.8328
639.4018
639.4018
0.099865 0.518915 0.0
331.6768
367.6024
484.4515
510.0903
570.7801
622.0859
0.099865 0.518915 0.062515
332.2757
366.2082
475.3609
508.6524
581.1066
628.1664
0.099865 0.518915 0.125031
328.6109
372.6105
452.8477
502.2987
603.8916
642.1241
0.099865 0.518915 0.187546
324.3874
390.9892
423.1652
488.5037
628.0562
655.2101
0.099865 0.518915 0.250061
331.4692
385.6576
418.7972
468.4021
647.1577
661.3071
0.099865 0.518915 -0.312576
353.6883
353.6883
444.1998
444.1998
658.5508
658.5508
0.199731 0.345944 0.0
309.6507
357.1053
454.7991
558.2576
558.2719
572.2189
0.199731 0.345944 0.062515
304.2845
362.1618
463.5222
523.6206
573.5304
588.4778
0.199731 0.345944 0.125031
296.616
375.3588
478.1918
486.5009
579.7569
611.8281
0.199731 0.345944 0.187546
298.5098
388.9536
451.9861
482.564
593.6485
625.9651
0.199731 0.345944 0.250061
315.1329
378.213
442.7811
474.0251
610.7536
629.8662
0.199731 0.345944 -0.312576
344.8148
344.8148
457.9908
457.9908
624.1464
624.1464
0.199731 0.461258 0.0
364.5881
403.1558
493.2588
509.575
560.7344
610.4526
0.199731 0.461258 0.062515
353.6298
409.5334
485.5599
509.2937
574.897
612.078
0.199731 0.461258 0.125031
334.7614
418.682
461.0329
521.8693
595.4045
619.7017
0.199731 0.461258 0.187546
322.322
403.9782
459.7843
525.0935
612.6835
631.6525
0.199731 0.461258 0.250061
323.7778
371.2113
478.4707
515.8142
627.7602
638.684
0.199731 0.461258 -0.312576
341.423
341.423
498.8907
498.8907
637.2349
637.2349
0.199731 0.576573 0.0
394.4669
414.4685
480.6566
516.1738
553.8091
622.5529
0.199731 0.576573 0.062515
378.2575
426.7886
461.4214
530.4954
564.2199
623.7242
0.199731 0.576573 0.125031
354.2438
429.9672
445.481
543.5804
587.7128
628.8887
0.199731 0.576573 0.187546
335.607
396.6347
467.0515
542.4747
612.2017
637.3859
0.199731 0.576573 0.250061
329.6844
364.7697
490.054
530.4308
630.8379
642.9765
0.199731 0.576573 -0.312576
340.2203
340.2203
512.0054
512.0054
641.2047
641.2047
0.299596 0.518915 0.0
409.7528
463.5002
470.3443
515.0791
542.9448
621.3617
0.299596 0.518915 0.062515
396.4258
444.2634
479.0273
529.0216
557.1754
618.946
0.299596 0.518915 0.125031
370.733
413.3022
492.6353
554.67
583.1436
613.2287
0.299596 0.518915 0.187546
347.5373
381.354
511.0282
570.9437
605.4374
610.6559
0.299596 0.518915 0.250061
334.564
353.8008
531.5742
566.604
617.3085
618.8172
0.299596 0.518915 -0.312576
336.6168
336.6168
551.1477
551.1477
622.292
622.292
P	=	3200.45	V	=	90.31624	E	=	-655.12966896
0.0 0.0 0.0
-0.0
-0.0
0.0
368.8393
368.8393
692.6859
0.0 0.0 0.062513
57.0842
57.0842
127.2324
364.554
364.554
685.8034
0.0 0.0 0.125025
111.5898
111.5898
248.8478
351.1463
351.1463
665.8506
0.0 0.0 0.187538
162.4747
162.4747
327.796
327.796
359.2973
633.9064
0.0 0.0 0.250051
210.1588
210.1588
294.9525
294.9525
453.9498
589.5722
0.0 0.0 -0.312563
254.8223
254.8223
254.8223
254.8223
530.4797
530.4797
0.0 0.115317 0.0
101.6481
113.6949
228.1089
385.475
415.2409
680.5465
0.0 0.115317 0.062513
127.9268
129.3513
252.2187
381.5653
410.6569
674.6549
0.0 0.115317 0.125025
161.3828
176.2152
316.3357
369.3535
396.6215
657.5227
0.0 0.115317 0.187538
201.5086
220.535
348.1452
372.8702
396.9654
629.9083
0.0 0.115317 0.250051
242.5847
262.6596
318.4235
340.9118
474.3242
591.298
0.0 0.115317 -0.312563
282.3082
282.3082
303.2266
303.2266
539.8472
539.8472
0.0 0.230635 0.0
197.0826
206.7165
411.4935
421.3117
507.6703
646.4903
0.0 0.230635 0.062513
207.7292
215.6137
418.0665
423.6392
500.7152
644.9412
0.0 0.230635 0.125025
236.1794
238.8674
407.9767
454.4427
481.7008
639.4411
0.0 0.230635 0.187538
269.8249
275.3027
390.5292
447.0187
499.87
627.9653
0.0 0.230635 0.250051
303.3301
319.2485
366.0792
408.2249
542.2533
608.409
0.0 0.230635 -0.312563
336.2378
336.2378
364.4775
364.4775
579.614
579.614
0.0 0.345952 0.0
265.9234
280.5836
454.0328
525.5458
586.1087
597.7096
0.0 0.345952 0.062513
273.136
282.6135
451.1276
531.8239
562.488
618.6489
0.0 0.345952 0.125025
291.1218
292.6205
442.194
516.0198
564.6345
637.4649
0.0 0.345952 0.187538
310.2789
319.6401
426.908
475.5072
591.2074
647.123
0.0 0.345952 0.250051
341.728
349.6067
405.4922
429.6691
616.7503
646.4836
0.0 0.345952 -0.312563
379.0804
379.0804
383.2224
383.2224
635.9326
635.9326
0.0 0.46127 0.0
292.2793
346.132
473.6439
546.9865
578.0101
628.3059
0.0 0.46127 0.062513
298.7409
342.8104
470.6887
533.0107
589.3605
637.8827
0.0 0.46127 0.125025
316.5884
337.3346
461.7286
503.9735
612.7371
656.0549
0.0 0.46127 0.187538
338.6973
342.1153
446.6522
467.0864
637.9497
670.411
0.0 0.46127 0.250051
354.1422
371.1122
425.4022
425.7189
658.5798
675.8645
0.0 0.46127 -0.312563
384.9488
384.9488
399.9129
399.9129
671.6502
671.6502
0.0 -0.576587 0.0
298.393
376.0962
479.8427
520.6068
591.8921
639.6761
0.0 -0.576587 0.062513
304.624
369.9005
476.7962
512.4949
602.0491
647.3659
0.0 -0.576587 0.125025
321.9998
357.7219
467.6141
490.8494
625.4964
663.8354
0.0 -0.576587 0.187538
347.1953
351.1987
452.284
459.1554
650.5809
678.4039
0.0 -0.576587 0.250051
359.3625
376.1507
421.2615
431.1184
670.3055
684.9623
0.0 -0.576587 -0.312563
384.7019
384.7019
405.1014
405.1014
682.0829
682.0829
0.099868 0.172976 0.0
172.4525
199.2398
351.772
428.0638
475.7805
657.3858
0.099868 0.172976 0.062513
184.8486
208.2967
365.469
426.2897
469.851
654.0255
0.099868 0.172976 0.125025
216.2709
231.8309
391.5406
429.641
452.3122
643.8834
0.099868 0.172976 0.187538
256.5049
262.8731
386.7429
424.3926
468.5616
626.4135
0.099868 0.172976 0.250051
295.783
298.2012
365.3586
389.0395
518.943
600.3114
0.099868 0.172976 -0.312563
321.9564
321.9564
354.9436
354.9436
564.3276
564.3276
0.099868 0.288294 0.0
252.7574
278.7751
431.3019
509.157
549.7707
615.5176
0.099868 0.288294 0.062513
254.147
286.6103
435.8843
511.3332
538.5321
621.6998
0.099868 0.288294 0.125025
263.3078
306.2899
439.9646
500.6208
534.681
630.769
0.099868 0.288294 0.187538
284.8965
332.0349
431.7376
465.7963
559.024
633.5962
0.099868 0.288294 0.250051
317.4119
356.8523
411.0292
430.536
587.4538
627.2179
0.099868 0.288294 -0.312563
352.7107
352.7107
405.3958
405.3958
611.3752
611.3752
0.099868 0.403611 0.0
322.5184
323.7648
473.9245
561.7422
564.1531
608.9342
0.099868 0.403611 0.062513
314.018
335.2024
473.9294
539.8088
577.3197
621.0965
0.099868 0.403611 0.125025
308.3116
353.2504
466.8256
511.7364
595.3311
640.6578
0.099868 0.403611 0.187538
312.0011
375.9378
444.2191
486.4664
617.9279
654.3111
0.099868 0.403611 0.250051
329.6752
388.6768
421.7745
463.1661
638.5624
658.4099
0.099868 0.403611 -0.312563
359.9824
359.9824
438.9056
438.9056
652.7705
652.7705
0.099868 0.518928 0.0
338.0796
374.1492
493.588
520.2908
582.6884
635.2828
0.099868 0.518928 0.062513
338.5198
372.9857
484.3541
518.7574
593.1983
641.5374
0.099868 0.518928 0.125025
334.6696
379.7662
461.4512
512.1533
616.4397
655.8775
0.099868 0.518928 0.187538
330.4836
398.414
431.2548
497.9696
641.1548
669.2744
0.099868 0.518928 0.250051
337.7397
392.9128
426.8231
477.3926
660.7528
675.4418
0.099868 0.518928 -0.312563
360.365
360.365
452.6847
452.6847
672.5096
672.5096
0.199736 0.345952 0.0
314.9629
363.5054
463.2667
569.4419
569.9399
584.1766
0.199736 0.345952 0.062513
309.5739
368.6261
472.1165
534.189
585.5236
600.6893
0.199736 0.345952 0.125025
301.8947
381.9916
487.0052
496.234
591.8961
624.6319
0.199736 0.345952 0.187538
303.907
395.75
461.0005
491.4541
606.0579
639.084
0.199736 0.345952 0.250051
320.8764
385.0184
451.2896
482.798
623.4829
643.0277
0.199736 0.345952 -0.312563
351.1222
351.1222
466.5476
466.5476
637.1515
637.1515
0.199736 0.46127 0.0
370.9964
410.6987
502.5952
519.7655
572.1543
623.1906
0.199736 0.46127 0.062513
359.9116
417.1464
494.9851
519.2138
586.6758
624.8677
0.199736 0.46127 0.125025
340.8273
426.3009
470.201
531.878
607.7366
632.6921
0.199736 0.46127 0.187538
328.2656
411.4175
468.7943
535.151
625.4549
644.9225
0.199736 0.46127 0.250051
329.8005
378.1383
487.7043
525.7134
640.879
652.0946
0.199736 0.46127 -0.312563
347.7959
347.7959
508.4829
508.4829
650.5835
650.5835
0.199736 0.576587 0.0
401.5562
422.4044
489.9851
525.9788
565.1416
635.5295
0.199736 0.576587 0.062513
385.0969
434.9978
470.2258
540.751
575.7446
636.7562
0.199736 0.576587 0.125025
360.7351
438.0829
454.1134
554.1983
599.7383
642.1074
0.199736 0.576587 0.187538
341.8634
404.0973
476.1186
553.095
624.818
650.8379
0.199736 0.576587 0.250051
335.884
371.6317
499.5897
540.8075
643.9502
656.5263
0.199736 0.576587 -0.312563
346.6241
346.6241
521.9992
521.9992
654.6385
654.6385
0.299603 0.518928 0.0
417.1707
472.3404
479.4966
525.0378
553.6823
634.1034
0.299603 0.518928 0.062513
403.6283
452.6119
488.4572
539.3073
568.2694
631.6342
0.299603 0.518928 0.125025
377.535
421.0267
502.3432
565.5748
594.9328
625.8096
0.299603 0.518928 0.187538
353.9968
388.5009
521.0902
582.2302
617.8384
623.2448
0.299603 0.518928 0.250051
340.8443
360.4594
542.0631
577.8333
630.0679
631.5843
0.299603 0.518928 -0.312563
342.9601
342.9601
562.0587
562.0587
635.1608
635.1608
P	=	3400.4	V	=	89.07875	E	=	-655.10190896
0.0 0.0 0.0
-0.0
-0.0
0.0
374.8448
374.8448
707.5057
0.0 0.0 0.062509
58.0048
58.0048
129.8004
370.4897
370.4897
700.406
0.0 0.0 0.125018
113.3735
113.3735
253.7201
356.8575
356.8575
679.7967
0.0 0.0 0.187526
165.0503
165.0503
333.105
333.105
366.1081
646.7831
0.0 0.0 0.250035
213.4842
213.4842
299.6914
299.6914
462.4216
601.0834
0.0 0.0 -0.312544
258.878
258.878
258.878
258.878
540.4945
540.4945
0.0 0.11532 0.0
103.2823
115.4527
232.323
391.811
422.0913
695.0085
0.0 0.11532 0.062509
129.9164
131.5526
256.9454
387.8337
417.4509
688.9326
0.0 0.11532 0.125018
163.9106
179.1817
322.373
375.4076
403.2147
671.2454
0.0 0.11532 0.187526
204.68
224.124
353.822
379.0482
404.5378
642.7299
0.0 0.11532 0.250035
246.4274
266.8668
323.5711
346.4975
483.3338
602.9613
0.0 0.11532 -0.312544
286.8236
286.8236
308.1142
308.1142
550.2167
550.2167
0.0 0.230639 0.0
200.2452
209.9836
419.2058
428.4083
516.4419
659.9573
0.0 0.230639 0.062509
211.1048
219.0275
425.0951
431.6069
509.4279
658.3286
0.0 0.230639 0.125018
240.0979
242.6661
414.7989
462.9247
490.3009
652.5875
0.0 0.230639 0.187526
274.1421
279.9089
397.0076
454.7864
509.4939
640.6917
0.0 0.230639 0.250035
308.2205
324.601
372.0943
415.2523
552.7377
620.5237
0.0 0.230639 -0.312544
341.7083
341.7083
370.6487
370.6487
590.9579
590.9579
0.0 0.345959 0.0
270.296
285.1218
461.9093
535.5408
597.0424
609.7681
0.0 0.345959 0.062509
277.634
287.246
458.9352
541.8288
573.3628
630.8894
0.0 0.345959 0.125018
296.0446
297.4542
449.7966
525.591
575.6946
650.1642
0.0 0.345959 0.187526
315.6831
324.9364
434.1793
484.3127
602.7545
660.049
0.0 0.345959 0.250035
347.7993
355.4204
412.3304
437.542
628.8284
659.3391
0.0 0.345959 -0.312544
385.42
385.42
390.14
390.14
648.4734
648.4734
0.0 0.461279 0.0
297.32
351.8562
482.0468
557.5989
589.2189
640.8619
0.0 0.461279 0.062509
303.8881
348.6073
479.0302
543.275
600.8374
650.6984
0.0 0.461279 0.125018
322.0277
343.2976
469.8804
513.6082
624.7118
669.3517
0.0 0.461279 0.187526
344.8826
347.9738
454.4807
475.9577
650.4856
684.0397
0.0 0.461279 0.250035
360.6948
377.4647
433.1082
433.4087
671.6307
689.5362
0.0 0.461279 -0.312544
392.1239
392.1239
406.7916
406.7916
685.1019
685.1019
0.0 -0.576598 0.0
303.6612
382.4244
488.4239
530.4778
603.5011
652.8056
0.0 -0.576598 0.062509
309.988
376.2895
485.3222
522.226
613.8197
660.688
0.0 -0.576598 0.125018
327.6312
364.2105
475.9626
500.1857
637.71
677.555
0.0 -0.576598 0.187526
353.2239
357.7698
460.3149
467.8723
663.3683
692.4143
0.0 -0.576598 0.250035
366.1211
382.6678
429.21
438.7015
683.6441
698.9893
0.0 -0.576598 -0.312544
391.9265
391.9265
412.1566
412.1566
695.8598
695.8598
0.09987 0.172979 0.0
175.2173
202.4283
358.0655
435.5361
483.8137
671.1703
0.09987 0.172979 0.062509
187.8482
211.636
371.9877
433.808
477.8208
667.693
0.09987 0.172979 0.125018
219.8191
235.556
398.1554
437.7046
460.0469
657.1992
0.09987 0.172979 0.187526
260.6882
267.1002
393.1262
431.6525
477.5755
639.1483
0.09987 0.172979 0.250035
300.5419
303.0238
371.3958
395.6176
528.961
612.2638
0.09987 0.172979 -0.312544
327.1188
327.1188
360.8806
360.8806
575.3519
575.3519
0.09987 0.288299 0.0
256.8161
283.3462
438.6191
518.806
559.6805
628.0905
0.09987 0.288299 0.062509
258.2349
291.3351
443.2521
520.9693
548.4691
634.2959
0.09987 0.288299 0.125018
267.5943
311.379
447.37
509.6636
545.1388
643.4589
0.09987 0.288299 0.187526
289.6175
337.5633
439.0437
474.1839
569.9533
646.2775
0.09987 0.288299 0.250035
322.7398
362.7637
418.1445
438.1052
598.9431
639.6748
0.09987 0.288299 -0.312544
358.6215
358.6215
412.4304
412.4304
623.4069
623.4069
0.09987 0.403619 0.0
327.9889
329.046
482.1648
572.5037
575.2562
620.8199
0.09987 0.403619 0.062509
319.191
340.9146
482.1733
550.1224
588.6571
633.3031
0.09987 0.403619 0.125018
313.476
359.3565
475.0222
521.3497
607.0424
653.3855
0.09987 0.403619 0.187526
317.355
382.4447
452.2097
495.3429
630.0949
667.3841
0.09987 0.403619 0.250035
335.4313
395.4191
429.4119
471.4401
651.1762
671.5524
0.09987 0.403619 -0.312544
366.3265
366.3265
446.6997
446.6997
665.7347
665.7347
0.09987 0.518938 0.0
344.0014
380.412
502.3734
530.1569
594.0285
648.187
0.09987 0.518938 0.062509
344.3506
379.461
493.0561
528.5128
604.7192
654.5925
0.09987 0.518938 0.125018
340.4217
386.6145
469.8401
521.6732
628.4139
669.2703
0.09987 0.518938 0.187526
336.3122
405.5826
439.1436
507.1296
653.6953
682.9418
0.09987 0.518938 0.250035
343.7715
400.0057
434.5482
486.0879
673.8305
689.1488
0.09987 0.518938 -0.312544
366.8385
366.8385
460.8729
460.8729
686.0004
686.0004
0.199739 0.345959 0.0
320.0629
369.6928
471.19
579.9346
581.2118
595.7712
0.199739 0.345959 0.062509
314.6082
374.9149
480.1948
544.2939
597.1698
612.3104
0.199739 0.345959 0.125018
306.8734
388.5225
495.35
505.5792
603.7102
636.8549
0.199739 0.345959 0.187526
309.0218
402.4911
469.6542
499.931
618.1364
651.6887
0.199739 0.345959 0.250035
326.3857
391.6982
459.488
491.212
635.8626
655.7565
0.199739 0.345959 -0.312544
357.2391
357.2391
474.7907
474.7907
649.7798
649.7798
0.199739 0.461279 0.0
377.1534
417.9236
511.4953
529.6227
583.0484
635.6565
0.199739 0.461279 0.062509
365.9299
424.4851
504.0748
528.7064
597.9224
637.358
0.199739 0.461279 0.125018
346.6246
433.7729
479.0031
541.4532
619.5571
645.2951
0.199739 0.461279 0.187526
333.9468
418.7637
477.4142
544.8046
637.7538
657.7396
0.199739 0.461279 0.250035
335.5811
384.9123
496.5825
535.2351
653.5488
665.0533
0.199739 0.461279 -0.312544
353.9643
353.9643
517.7166
517.7166
663.491
663.491
0.199739 0.576598 0.0
408.3713
429.9534
499.0185
535.4611
575.9953
648.2844
0.199739 0.576598 0.062509
391.666
442.8324
478.7979
550.648
586.7504
649.5335
0.199739 0.576598 0.125018
366.982
446.0324
462.3566
564.4445
611.1881
654.9987
0.199739 0.576598 0.187526
347.8761
411.4071
484.7861
563.3464
636.8538
663.9049
0.199739 0.576598 0.250035
341.831
378.3041
508.7344
550.8161
656.5288
669.6535
0.199739 0.576598 -0.312544
352.7926
352.7926
531.6173
531.6173
667.6016
667.6016
0.299609 0.518938 0.0
424.3291
480.8977
488.3104
534.6292
564.0655
646.623
0.299609 0.518938 0.062509
410.5949
460.7392
497.488
549.1995
578.9611
644.0703
0.299609 0.518938 0.125018
384.1237
428.5858
511.562
576.0515
606.2607
638.0742
0.299609 0.518938 0.187526
360.2305
395.4801
530.6307
593.0902
629.7559
635.4509
0.299609 0.518938 0.250035
346.8708
366.9044
552.0724
588.6569
642.3947
643.8754
0.299609 0.518938 -0.312544
349.0491
349.0491
572.546
572.546
647.5727
647.5727
P	=	3600.12	V	=	87.91102	E	=	-655.07412667
0.0 0.0 0.0
-0.0
-0.0
0.0
380.7447
380.7447
721.851
0.0 0.0 0.062504
58.9457
58.9458
132.0032
376.322
376.322
714.4927
0.0 0.0 0.125008
115.1629
115.1629
258.1817
362.4651
362.4651
693.2135
0.0 0.0 0.187512
167.5781
167.5781
338.2974
338.2974
372.804
659.3235
0.0 0.0 0.250016
216.7005
216.7005
304.2931
304.2931
471.1249
612.6266
0.0 0.0 -0.312521
262.7921
262.7921
262.7921
262.7921
550.8105
550.8105
0.0 0.115322 0.0
104.8597
117.1363
236.4448
398.0256
428.8568
709.0064
0.0 0.115322 0.062504
131.8493
133.5096
261.5486
393.9807
424.1404
702.7165
0.0 0.115322 0.125008
166.3899
181.9076
328.1871
381.335
409.6567
684.4658
0.0 0.115322 0.187512
207.7679
227.5866
359.3543
385.0314
411.953
655.1855
0.0 0.115322 0.250016
250.1334
270.9731
328.5522
351.8898
492.3624
614.5105
0.0 0.115322 -0.312521
291.1698
291.1698
312.8549
312.8549
560.6482
560.6482
0.0 0.230643 0.0
203.2999
213.1538
426.7465
435.3259
525.0949
672.9723
0.0 0.230643 0.062504
214.3548
222.3463
431.9446
439.3713
517.9747
671.2653
0.0 0.230643 0.125008
243.8554
246.3601
421.4371
471.132
498.6487
665.292
0.0 0.230643 0.187512
278.3181
284.3226
403.2866
462.208
518.8322
653.0039
0.0 0.230643 0.250016
312.9222
329.7231
377.892
421.9365
562.9225
632.271
0.0 0.230643 -0.312521
346.9606
346.9606
376.5316
376.5316
601.9786
601.9786
0.0 0.345965 0.0
274.5897
289.4919
469.5227
545.2843
607.7214
621.3635
0.0 0.345965 0.062504
282.0428
291.7418
466.4826
551.5387
583.8768
642.7555
0.0 0.345965 0.125008
300.8334
302.1671
457.1433
534.751
586.3882
662.4728
0.0 0.345965 0.187512
320.8384
330.063
441.1943
492.6412
613.8886
672.5434
0.0 0.345965 0.250016
353.4591
361.0149
418.9096
444.8932
640.4547
671.7277
0.0 0.345965 -0.312521
391.5093
391.5093
396.5458
396.5458
660.5404
660.5404
0.0 0.461287 0.0
302.2962
357.3381
490.1238
567.7261
600.0699
653.0284
0.0 0.461287 0.062504
308.9603
354.1748
487.0476
553.0641
611.9345
663.1048
0.0 0.461287 0.125008
327.3597
349.0271
477.7131
522.7605
636.2641
682.2061
0.0 0.461287 0.187512
350.7599
353.6751
461.9994
484.3181
662.5521
697.1911
0.0 0.461287 0.250016
366.8191
383.6041
440.205
440.8784
684.1756
702.7002
0.0 0.461287 -0.312521
398.7817
398.7817
413.4097
413.4097
698.0334
698.0334
0.0 -0.576608 0.0
308.8662
388.4704
496.6592
539.8556
614.6962
665.4927
0.0 -0.576608 0.062504
315.2811
382.3919
493.5019
531.4648
625.1722
673.5548
0.0 -0.576608 0.125008
333.1657
370.3964
483.9665
509.0279
649.4867
690.7904
0.0 -0.576608 0.187512
359.1099
363.9996
468.0117
476.0899
675.6844
705.9103
0.0 -0.576608 0.250016
372.4775
388.9828
436.6642
445.9772
696.4738
712.4829
0.0 -0.576608 -0.312521
398.6897
398.6897
418.9503
418.9503
709.1039
709.1039
0.099872 0.172983 0.0
177.8912
205.4949
364.2336
442.8393
491.7492
684.5016
0.099872 0.172983 0.062504
190.7083
214.8565
378.3513
441.1558
485.6521
680.8988
0.099872 0.172983 0.125008
223.187
239.1561
404.5764
445.5693
467.553
670.0566
0.099872 0.172983 0.187512
264.7095
271.1711
399.3086
438.6179
486.3535
651.481
0.099872 0.172983 0.250016
305.1031
307.6847
377.2121
401.9102
538.7558
623.9094
0.099872 0.172983 -0.312521
332.069
332.069
366.5885
366.5885
586.1414
586.1414
0.099872 0.288304 0.0
260.7444
287.7769
445.7729
528.197
569.3867
640.2098
0.099872 0.288304 0.062504
262.2293
295.9038
450.4273
530.332
558.14
646.479
0.099872 0.288304 0.125008
271.7922
316.2753
454.5424
518.3526
555.2863
655.7576
0.099872 0.288304 0.187512
294.152
342.8485
446.0812
482.1532
580.54
658.5489
0.099872 0.288304 0.250016
327.7597
368.3844
424.9142
445.2765
610.0475
651.7019
0.099872 0.288304 -0.312521
364.1805
364.1805
419.1005
419.1005
635.0178
635.0178
0.099872 0.403626 0.0
333.3411
334.1381
490.1269
582.9413
585.8916
632.3449
0.099872 0.403626 0.062504
324.2444
346.4537
490.1211
560.0085
599.6336
645.1344
0.099872 0.403626 0.125008
318.5269
365.2494
482.8864
530.5328
618.3752
665.7213
0.099872 0.403626 0.187512
322.5009
388.6736
459.8038
503.8191
641.8399
680.0347
0.099872 0.403626 0.250016
340.8318
401.7675
436.6537
479.332
663.3294
684.2361
0.099872 0.403626 -0.312521
372.2244
372.2244
454.1197
454.1197
678.2231
678.2231
0.099872 0.518948 0.0
349.8186
386.4221
510.7996
539.5502
604.972
660.6346
0.099872 0.518948 0.062504
350.0792
385.6745
501.3651
537.8278
615.8466
667.1922
0.099872 0.518948 0.125008
346.0336
393.2018
477.7958
530.7972
639.9861
682.2016
0.099872 0.518948 0.187512
341.9217
412.4715
446.5877
515.9224
665.8029
696.13
0.099872 0.518948 0.250016
349.4901
406.662
441.9595
494.4283
686.4362
702.359
0.099872 0.518948 -0.312521
372.9166
372.9166
468.7211
468.7211
698.9943
698.9943
0.199743 0.345965 0.0
325.009
375.666
478.9479
590.1087
592.0272
606.9825
0.199743 0.345965 0.062504
319.5356
380.9714
488.0638
553.9783
608.4427
623.5784
0.199743 0.345965 0.125008
311.7663
394.7737
503.423
514.4793
615.1606
648.7347
0.199743 0.345965 0.187512
313.9427
408.8893
477.8402
508.0952
629.833
663.9253
0.199743 0.345965 0.250016
331.5355
397.9376
467.2519
499.2709
647.8276
668.0761
0.199743 0.345965 -0.312521
362.8984
362.8984
482.6353
482.6353
661.9783
661.9783
0.199743 0.461287 0.0
383.1062
424.9277
520.1168
539.0404
593.5382
647.6325
0.199743 0.461287 0.062504
371.7785
431.5803
512.7544
537.8562
608.7923
649.3868
0.199743 0.461287 0.125008
352.2669
440.9445
487.3807
550.6891
631.0219
657.4884
0.199743 0.461287 0.187512
339.4175
425.6897
485.6835
554.1135
649.6752
670.1664
0.199743 0.461287 0.250016
341.0513
391.2521
505.0915
544.396
665.8082
677.6063
0.199743 0.461287 -0.312521
359.7368
359.7368
526.5712
526.5712
675.9778
675.9778
0.199743 0.576608 0.0
414.9397
437.2958
507.6374
544.5508
586.4617
660.4987
0.199743 0.576608 0.062504
398.0315
450.4135
486.95
560.1554
597.3906
661.8041
0.199743 0.576608 0.125008
373.0294
453.5551
470.332
574.3191
622.2936
667.4368
0.199743 0.576608 0.187512
353.6615
418.2989
493.1667
573.2505
648.5324
676.5354
0.199743 0.576608 0.250016
347.5021
384.5907
517.5531
560.4777
668.7149
682.3433
0.199743 0.576608 -0.312521
358.6268
358.6268
540.8849
540.8849
680.1398
680.1398
0.299615 0.518948 0.0
431.23
489.0895
496.7904
543.9286
574.0473
658.5512
0.299615 0.518948 0.062504
417.3114
468.5081
506.1885
558.7844
589.2795
655.9615
0.299615 0.518948 0.125008
390.4673
435.7753
520.4997
586.1958
617.2425
649.8876
0.299615 0.518948 0.187512
366.2112
402.0969
539.8912
603.6012
641.3317
647.263
0.299615 0.518948 0.250016
352.6238
373.0126
561.7493
599.1139
654.341
655.813
0.299615 0.518948 -0.312521
354.8345
354.8345
582.6613
582.6613
659.6151
659.6151
P	=	3800.23	V	=	86.80275	E	=	-655.04625202
0.0 0.0 0.0
-0.0
-0.0
-0.0
386.4695
386.4695
735.7645
0.0 0.0 0.0625
59.851
59.851
134.2511
381.9971
381.9971
728.182
0.0 0.0 0.124999
116.9147
116.9147
262.6178
367.9657
367.9657
706.2863
0.0 0.0 0.187499
170.1052
170.1052
343.4528
343.4528
379.2853
671.5069
0.0 0.0 0.249999
219.9623
219.9623
308.9235
308.9235
479.4186
623.7305
0.0 0.0 -0.312498
266.7671
266.7671
266.7671
266.7671
560.6369
560.6369
0.0 0.115325 0.0
106.4476
118.7761
240.467
404.0532
435.4106
722.5953
0.0 0.115325 0.0625
133.7294
135.5287
266.0508
399.9537
430.6431
716.1204
0.0 0.115325 0.124999
168.8159
184.6587
333.897
387.1271
415.9733
697.3505
0.0 0.115325 0.187499
210.8302
231.0107
364.8098
390.9583
419.1641
667.2961
0.0 0.115325 0.249999
253.8483
275.0295
333.5159
357.258
501.0415
625.6549
0.0 0.115325 -0.312498
295.5322
295.5322
317.5655
317.5655
570.6504
570.6504
0.0 0.23065 0.0
206.3511
216.2703
434.1141
442.0572
533.5097
685.6478
0.0 0.23065 0.0625
217.6244
225.6056
438.6138
446.974
526.3124
683.874
0.0 0.23065 0.124999
247.638
249.9912
427.9164
479.2013
506.8409
677.6828
0.0 0.23065 0.187499
282.4442
288.7094
409.4465
469.5684
527.9597
664.9929
0.0 0.23065 0.249999
317.5907
334.7671
383.6183
428.5599
572.8317
643.6744
0.0 0.23065 -0.312498
352.1753
352.1753
382.3319
382.3319
612.6658
612.6658
0.0 0.345976 0.0
278.8816
293.831
476.9953
554.8452
618.1962
632.7223
0.0 0.345976 0.0625
286.4425
296.2149
473.8923
561.0878
594.2112
654.3659
0.0 0.345976 0.124999
305.6104
306.8597
464.3658
543.8212
596.9022
674.5031
0.0 0.345976 0.187499
325.9767
335.1679
448.1133
500.9191
624.834
684.7455
0.0 0.345976 0.249999
359.0875
366.5906
425.4301
452.2082
651.8545
683.8238
0.0 0.345976 -0.312498
397.5694
397.5694
402.9146
402.9146
672.3384
672.3384
0.0 0.461301 0.0
307.364
362.7735
498.1202
577.7113
610.8084
665.0231
0.0 0.461301 0.0625
314.1159
359.7028
494.9874
562.7414
622.8933
675.3229
0.0 0.461301 0.124999
332.7587
354.725
485.4797
531.8371
647.65
694.8491
0.0 0.461301 0.187499
356.6056
359.4299
469.4761
492.6322
674.4379
710.1234
0.0 0.461301 0.249999
372.9132
389.785
447.2928
448.3199
696.534
715.6538
0.0 0.461301 -0.312498
405.4139
405.4139
420.0493
420.0493
710.7692
710.7692
0.0 -0.576626 0.0
314.2123
394.4672
504.841
549.1302
625.8256
678.0179
0.0 -0.576626 0.0625
320.7075
388.4561
501.631
540.6111
636.4223
686.2517
0.0 -0.576626 0.124999
338.8161
376.5515
491.9309
517.7988
661.1
703.8482
0.0 -0.576626 0.187499
365.0929
370.1902
475.6923
484.2583
687.8118
719.2357
0.0 -0.576626 0.249999
378.7916
395.3748
444.0838
453.2698
709.1271
725.8185
0.0 -0.576626 -0.312498
405.4176
405.4176
425.7945
425.7945
722.1898
722.1898
0.099875 0.172988 0.0
180.566
208.4756
370.2559
449.944
499.4533
697.4704
0.099875 0.172988 0.0625
193.6007
217.9861
384.5778
448.3073
493.2854
693.7601
0.099875 0.172988 0.124999
226.5915
242.6656
410.8737
453.2423
474.938
682.5946
0.099875 0.172988 0.187499
268.7096
275.1713
405.3746
445.5268
494.9181
663.4858
0.099875 0.172988 0.249999
309.6201
312.2854
382.9403
408.1563
548.2563
635.196
0.099875 0.172988 -0.312498
336.9869
336.9869
372.2147
372.2147
596.5733
596.5733
0.099875 0.288313 0.0
264.6433
292.1172
452.7617
537.396
578.8862
652.0546
0.099875 0.288313 0.0625
266.207
300.377
457.4471
539.5148
567.6317
658.383
0.099875 0.288313 0.124999
275.994
321.0704
461.5727
526.953
565.2397
667.7688
0.099875 0.288313 0.187499
298.6884
348.0399
453.0028
490.0728
590.9164
670.5172
0.099875 0.288313 0.249999
332.7633
373.9311
431.6209
452.3783
620.892
663.4121
0.099875 0.288313 -0.312498
369.7076
369.7076
425.6956
425.6956
646.3236
646.3236
0.099875 0.403638 0.0
338.6631
339.1738
497.966
593.2383
596.3528
643.6922
0.099875 0.403638 0.0625
329.2597
351.9471
497.95
569.7748
610.4427
656.7643
0.099875 0.403638 0.124999
323.5602
371.0854
490.6529
539.625
629.5392
677.8229
0.099875 0.403638 0.187499
327.6497
394.8381
467.3526
512.2041
653.4006
692.4272
0.099875 0.403638 0.249999
346.2437
408.0768
443.8647
487.1384
675.2667
696.6551
0.099875 0.403638 -0.312498
378.1273
378.1273
461.4734
461.4734
690.4631
690.4631
0.099875 0.518964 0.0
355.674
392.3684
519.1494
548.8349
615.8347
672.9202
0.099875 0.518964 0.0625
355.831
391.8469
509.6018
547.0418
626.8624
679.6218
0.099875 0.518964 0.124999
351.6514
399.7721
485.7004
539.8216
651.3975
694.9481
0.099875 0.518964 0.187499
347.5352
419.3379
454.011
524.6186
677.7212
709.1249
0.099875 0.518964 0.249999
355.2172
413.316
449.3373
502.6864
698.8467
715.3751
0.099875 0.518964 -0.312498
379.0052
379.0052
476.5102
476.5102
711.7946
711.7946
0.199749 0.345976 0.0
329.8872
381.5075
486.5659
600.1458
602.6555
618.0108
0.199749 0.345976 0.0625
324.4039
386.8903
495.7991
563.5473
619.5337
634.6487
0.199749 0.345976 0.124999
316.6308
400.8791
511.362
523.3206
626.4298
660.3809
0.199749 0.345976 0.187499
318.8694
415.1538
486.0066
516.1212
641.33
675.8914
0.199749 0.345976 0.249999
336.7027
404.1246
474.9549
507.2056
659.5469
680.1006
0.199749 0.345976 -0.312498
368.5591
368.5591
490.381
490.381
673.8896
673.8896
0.199749 0.461301 0.0
388.971
431.8282
528.6192
548.3407
603.9359
659.4497
0.199749 0.461301 0.0625
377.5474
438.5674
521.3369
546.8939
619.5355
661.2513
0.199749 0.461301 0.124999
357.8576
447.9962
495.7063
559.7891
642.319
669.4965
0.199749 0.461301 0.187499
344.8721
432.5418
493.876
563.2667
661.4002
682.3668
0.199749 0.461301 0.249999
346.5263
397.5658
513.4898
553.4022
677.8359
689.9011
0.199749 0.461301 -0.312498
365.5099
365.5099
535.2896
535.2896
688.2053
688.2053
0.199749 0.576626 0.0
421.4189
444.5624
516.1627
553.5403
596.8402
672.5636
0.199749 0.576626 0.0625
404.3162
457.9235
495.0188
569.5469
607.9219
673.9169
0.199749 0.576626 0.124999
379.0187
461.0117
478.2339
584.048
633.2462
679.6975
0.199749 0.576626 0.187499
359.4148
425.1475
501.4537
582.9831
660.014
688.9616
0.199749 0.576626 0.249999
353.16
390.8566
526.246
569.9629
680.6721
694.8031
0.199749 0.576626 -0.312498
364.4521
364.4521
549.9944
549.9944
692.4374
692.4374
0.299624 0.518964 0.0
438.0336
497.1871
505.1504
553.1115
583.9265
670.3387
0.299624 0.518964 0.0625
423.9354
476.1809
514.7786
568.2477
599.4752
667.7024
0.299624 0.518964 0.124999
396.7376
442.8842
529.3195
596.1919
628.0566
661.5278
0.299624 0.518964 0.187499
372.1463
408.6548
549.0133
613.9195
652.6835
658.8742
0.299624 0.518964 0.249999
358.3511
379.0836
571.2586
609.3612
666.0412
667.4816
0.299624 0.518964 -0.312498
360.5963
360.5963
592.5809
592.5809
671.3793
671.3793
P	=	3999.94	V	=	85.75208	E	=	-655.01839792
0.0 0.0 0.0
0.0
0.0
0.0
392.0643
392.0643
749.3892
0.0 0.0 0.062495
60.5884
60.5884
136.3459
387.5097
387.5097
741.5846
0.0 0.0 0.12499
118.406
118.406
266.7932
373.2373
373.2373
719.0789
0.0 0.0 0.187485
172.3676
172.3676
348.3385
348.3385
385.4618
683.419
0.0 0.0 0.24998
222.9884
222.9884
313.2934
313.2934
487.4117
634.566
0.0 0.0 -0.312475
270.5085
270.5085
270.5085
270.5085
570.1832
570.1832
0.0 0.115327 0.0
107.9348
120.3392
244.3824
409.9377
441.7882
735.8832
0.0 0.115327 0.062495
135.4677
137.3848
270.3715
405.7579
436.9395
729.2211
0.0 0.115327 0.12499
171.011
187.1593
339.3235
392.6986
422.0251
709.9353
0.0 0.115327 0.187485
213.6417
234.1562
370.015
396.5854
426.0777
679.128
0.0 0.115327 0.24998
257.3345
278.8286
338.2389
362.3472
509.4536
636.5503
0.0 0.115327 -0.312475
299.6731
299.6731
322.0248
322.0248
580.4121
580.4121
0.0 0.230654 0.0
209.2491
219.2415
441.3002
448.5688
541.6078
698.0047
0.0 0.230654 0.062495
220.6915
228.6886
445.0475
454.3377
534.3147
696.1534
0.0 0.230654 0.12499
251.1507
253.3947
434.1309
486.9117
514.692
689.7386
0.0 0.230654 0.187485
286.3245
292.8266
415.3313
476.5375
536.7671
676.6819
0.0 0.230654 0.24998
322.0223
339.5714
389.0868
434.8581
582.4726
654.8356
0.0 0.230654 -0.312475
357.1529
357.1529
387.8767
387.8767
623.13
623.13
0.0 0.345982 0.0
282.9421
298.0218
484.0982
564.0952
628.2295
643.7736
0.0 0.345982 0.062495
290.5971
300.5027
480.9208
570.253
604.1906
665.5929
0.0 0.345982 0.12499
310.149
311.2838
471.189
552.4401
607.0642
686.1253
0.0 0.345982 0.187485
330.8855
339.9928
454.6376
508.7966
635.3953
696.5614
0.0 0.345982 0.24998
364.526
371.8778
431.5913
459.2209
662.8992
695.5785
0.0 0.345982 -0.312475
403.3145
403.3145
409.0742
409.0742
683.8109
683.8109
0.0 0.461309 0.0
312.0927
368.0888
505.6005
587.431
621.021
676.5669
0.0 0.461309 0.062495
318.9271
365.0825
502.4003
572.1087
633.3504
687.0867
0.0 0.461309 0.12499
337.8056
360.2279
492.7048
540.5837
658.5303
707.0312
0.0 0.461309 0.187485
362.2466
364.8281
476.4238
500.6405
685.822
722.6001
0.0 0.461309 0.24998
378.8223
395.5935
453.9012
455.5149
708.4166
728.163
0.0 0.461309 -0.312475
411.8534
411.8534
426.2726
426.2726
723.0554
723.0554
0.0 -0.576636 0.0
319.1646
400.3575
512.4471
558.1646
636.3251
690.1039
0.0 -0.576636 0.062495
325.7366
394.3844
509.1741
549.5091
647.0534
698.5066
0.0 -0.576636 0.12499
344.0655
382.5211
499.2956
526.3138
672.115
716.4541
0.0 -0.576636 0.187485
370.674
376.1753
482.7881
492.1814
699.3668
732.0968
0.0 -0.576636 0.24998
384.9089
401.3495
451.2854
460.0309
721.2422
738.675
0.0 -0.576636 -0.312475
411.95
411.95
432.1746
432.1746
734.772
734.772
0.099876 0.172991 0.0
183.0943
211.3554
376.1237
456.8527
506.8773
710.1238
0.099876 0.172991 0.062495
196.2974
220.9762
390.5867
455.2506
500.6088
706.2975
0.099876 0.172991 0.12499
229.729
245.9708
416.8863
460.6556
481.9574
694.8063
0.099876 0.172991 0.187485
272.4314
278.9439
411.1834
452.0532
503.1788
675.1986
0.099876 0.172991 0.24998
313.9223
316.6298
388.4355
414.0649
557.5037
646.2468
0.099876 0.172991 -0.312475
341.6838
341.6838
377.5756
377.5756
606.7918
606.7918
0.099876 0.288318 0.0
268.3824
296.3137
459.5164
546.2812
587.9626
663.5829
0.099876 0.288318 0.062495
269.9894
304.6794
464.1931
548.3283
576.7301
669.9405
0.099876 0.288318 0.12499
279.9482
325.6471
468.2733
535.0672
574.8625
679.4028
0.099876 0.288318 0.187485
302.9869
352.991
459.5748
497.558
600.9503
682.1318
0.099876 0.288318 0.24998
337.5623
379.2397
437.9887
459.1694
631.4357
674.8259
0.099876 0.288318 -0.312475
375.0054
375.0054
432.0225
432.0225
657.3604
657.3604
0.099876 0.403645 0.0
343.7516
344.0697
505.3968
603.0405
606.5299
654.6008
0.099876 0.403645 0.062495
334.081
357.2137
505.3398
579.1329
620.8601
667.9395
0.099876 0.403645 0.12499
328.3657
376.6501
497.9258
548.3197
640.2778
689.4535
0.099876 0.403645 0.187485
332.5741
400.712
474.4254
520.2168
664.5319
704.3686
0.099876 0.403645 0.24998
351.4571
414.0813
450.7279
494.5967
686.8037
708.6675
0.099876 0.403645 -0.312475
383.7977
383.7977
468.508
468.508
702.3206
702.3206
0.099876 0.518972 0.0
361.2088
398.194
526.9507
557.8773
626.0892
684.7756
0.099876 0.518972 0.062495
361.2759
397.8401
517.3174
555.9466
637.2833
691.609
0.099876 0.518972 0.12499
356.996
406.0539
493.1169
548.4545
662.2322
707.2323
0.099876 0.518972 0.187485
352.8945
425.872
461.0075
532.888
689.0937
721.6529
0.099876 0.518972 0.24998
360.7122
419.6435
456.3665
510.5331
710.7558
727.9311
0.099876 0.518972 -0.312475
384.8441
384.8441
483.9273
483.9273
724.1276
724.1276
0.199753 0.345982 0.0
334.6124
387.1886
493.879
609.5445
612.9925
628.7078
0.199753 0.345982 0.062495
329.0935
392.6182
503.1932
572.6276
630.2783
645.2404
0.199753 0.345982 0.12499
321.2738
406.733
518.909
531.6569
637.3259
671.5248
0.199753 0.345982 0.187485
323.5826
421.1153
493.726
523.7551
652.455
687.3879
0.199753 0.345982 0.24998
341.6921
409.9998
482.3347
514.7896
670.9238
691.7302
0.199753 0.345982 -0.312475
374.0069
374.0069
497.8151
497.8151
685.4611
685.4611
0.199753 0.461309 0.0
394.6922
438.4726
536.6987
557.3952
613.6716
670.8747
0.199753 0.461309 0.062495
383.1408
445.2712
529.5117
555.5575
629.6762
672.6956
0.199753 0.461309 0.12499
363.2192
454.6951
503.6113
568.4378
653.0706
681.0243
0.199753 0.461309 0.187485
350.0874
438.9857
501.7064
571.9651
672.6466
694.0768
0.199753 0.461309 0.24998
351.792
403.5554
521.5503
562.0027
689.4455
701.7567
0.199753 0.461309 -0.312475
371.0557
371.0557
543.6563
543.6563
700.0331
700.0331
0.199753 0.576636 0.0
427.7552
451.518
524.4695
561.9826
606.6322
684.2167
0.199753 0.576636 0.062495
410.404
465.1125
502.768
578.4433
617.8644
685.5928
0.199753 0.576636 0.12499
384.751
468.0783
485.7676
593.2742
643.6188
691.4815
0.199753 0.576636 0.187485
364.8946
431.6085
509.3664
592.2258
670.9631
700.913
0.199753 0.576636 0.24998
358.5766
396.8115
534.5841
579.0178
692.1667
706.8246
0.199753 0.576636 -0.312475
370.0377
370.0377
558.7353
558.7353
704.3122
704.3122
0.299629 0.518972 0.0
444.6755
505.0817
513.1208
561.8512
593.2213
681.7194
0.299629 0.518972 0.062495
430.357
483.5707
522.9655
577.2481
609.102
679.0049
0.299629 0.518972 0.12499
402.7333
449.6323
537.6916
605.697
638.3122
672.6796
0.299629 0.518972 0.187485
377.7842
414.8385
557.7026
623.7552
663.5259
670.013
0.299629 0.518972 0.24998
363.8229
384.8508
580.3811
619.1745
677.3411
678.7246
0.299629 0.518972 -0.312475
366.1187
366.1187
602.1193
602.1193
682.7695
682.7695
P	=	4999.78	V	=	81.18061	E	=	-654.87912937
0.0 0.0 0.0
-0.0
-0.0
-0.0
418.2158
418.2158
812.3427
0.0 0.0 0.062479
64.2909
64.2909
146.2632
413.3946
413.3946
803.5469
0.0 0.0 0.124958
125.7358
125.7358
286.3575
398.2411
398.2411
778.261
0.0 0.0 0.187438
183.2541
183.2541
371.6962
371.6962
414.0808
738.4643
0.0 0.0 0.249917
237.3987
237.3987
334.2041
334.2041
524.1803
684.4737
0.0 0.0 -0.312396
288.3395
288.3395
288.3395
288.3395
614.0338
614.0338
0.0 0.115352 0.0
115.2452
127.733
262.591
437.372
471.523
797.3301
0.0 0.115352 0.062479
143.7537
146.4457
290.5217
432.9095
466.3752
789.8554
0.0 0.115352 0.124958
181.4972
199.1945
364.6362
418.9525
450.4896
768.2551
0.0 0.115352 0.187438
226.9592
249.1206
394.6695
423.2153
458.0866
733.9106
0.0 0.115352 0.249917
273.7463
296.7987
360.595
386.4564
548.1754
686.8194
0.0 0.115352 -0.312396
319.191
319.191
343.1178
343.1178
625.3043
625.3043
0.0 0.230704 0.0
223.0497
233.2075
474.6954
479.0062
579.5225
755.2512
0.0 0.230704 0.062479
235.3304
243.1834
475.1767
488.5804
571.7743
753.1319
0.0 0.230704 0.124958
267.8747
269.364
463.3395
522.8543
551.3866
745.8084
0.0 0.230704 0.187438
304.4456
312.277
443.0294
509.4237
577.4752
731.0077
0.0 0.230704 0.249917
342.6655
362.1803
414.7518
464.5741
626.9598
706.5153
0.0 0.230704 -0.312396
380.3974
380.3974
413.9985
413.9985
671.4215
671.4215
0.0 0.346055 0.0
302.1789
317.345
517.6235
607.4649
675.4047
695.0099
0.0 0.346055 0.062479
310.2581
320.3745
514.1417
613.3772
650.5951
718.0276
0.0 0.346055 0.124958
331.35
332.1402
503.517
593.1164
654.1571
740.4502
0.0 0.346055 0.187438
353.8874
362.62
485.5463
545.9234
684.3892
751.7072
0.0 0.346055 0.249917
390.0281
396.6127
460.6589
492.2406
714.1304
750.2824
0.0 0.346055 -0.312396
430.2646
430.2646
438.0118
438.0118
737.0741
737.0741
0.0 0.461407 0.0
334.9584
392.1954
541.1543
632.3605
669.7947
730.6384
0.0 0.461407 0.062479
342.1666
389.6586
537.686
615.6288
682.9718
742.1193
0.0 0.461407 0.124958
362.0741
385.7215
527.1832
581.3135
709.8518
763.9173
0.0 0.461407 0.187438
388.6372
390.5874
509.5805
537.9524
739.2824
780.7941
0.0 0.461407 0.249917
406.5225
423.1373
485.3303
489.0708
764.033
786.5023
0.0 0.461407 -0.312396
441.9615
441.9615
455.7609
455.7609
780.4244
780.4244
0.0 -0.576759 0.0
343.3828
427.0148
548.6674
599.781
686.9173
746.5798
0.0 -0.576759 0.062479
350.3097
421.4558
545.1487
590.5115
698.1008
755.6867
0.0 -0.576759 0.124958
369.599
410.2466
534.5134
565.5562
724.6287
775.1393
0.0 -0.576759 0.187438
397.5763
404.2869
516.733
528.7185
754.075
791.9389
0.0 -0.576759 0.249917
413.6483
429.8966
484.6131
492.2907
778.2531
798.61
0.0 -0.576759 -0.312396
442.4088
442.4088
462.5571
462.5571
793.6646
793.6646
0.099898 0.173028 0.0
195.2582
224.7322
403.4576
488.9964
541.6336
768.7194
0.099898 0.173028 0.062479
209.2902
234.8953
418.6413
487.5496
534.9503
764.4345
0.099898 0.173028 0.124958
244.7762
261.3808
445.1786
494.9694
515.0144
751.5476
0.099898 0.173028 0.187438
290.1279
296.4881
438.4629
482.9337
541.3423
729.5844
0.099898 0.173028 0.249917
333.8956
337.2099
414.094
442.0708
600.1203
697.3632
0.099898 0.173028 -0.312396
363.6825
363.6825
402.7884
402.7884
653.887
653.887
0.099898 0.28838 0.0
285.8446
315.7139
491.2825
587.6796
630.7438
717.0718
0.099898 0.28838 0.062479
287.7345
324.5863
495.978
589.4754
619.4038
723.7408
0.099898 0.28838 0.124958
298.608
346.8412
499.9048
573.5578
619.2868
733.7287
0.099898 0.28838 0.187438
323.2721
375.8994
490.5653
533.038
647.2878
736.3218
0.099898 0.28838 0.249917
360.1891
403.8452
468.023
491.0854
680.1502
727.8755
0.099898 0.28838 -0.312396
399.942
399.942
461.564
461.564
708.4535
708.4535
0.099898 0.403731 0.0
366.4611
367.624
540.6195
649.5702
653.7502
705.6825
0.099898 0.403731 0.062479
356.4646
381.73
540.4221
623.1828
669.5526
720.3049
0.099898 0.403731 0.124958
350.868
402.6212
532.5864
589.2232
690.3722
743.9536
0.099898 0.403731 0.187438
355.757
428.0956
508.1878
557.8173
716.3578
760.2306
0.099898 0.403731 0.249917
376.0297
442.2539
483.1191
529.4838
740.4584
764.7028
0.099898 0.403731 -0.312396
410.5597
410.5597
501.3632
501.3632
757.5011
757.5011
0.099898 0.519083 0.0
387.6304
424.7004
564.0449
599.6964
675.4026
740.0678
0.099898 0.519083 0.062479
387.1728
425.4721
553.9455
597.3377
687.1893
747.4993
0.099898 0.519083 0.124958
382.3263
435.5395
528.3328
588.7781
713.748
764.471
0.099898 0.519083 0.187438
378.3295
456.6214
494.2018
571.6046
742.783
780.0
0.099898 0.519083 0.249917
386.733
449.4817
489.4065
547.281
766.6283
786.4355
0.099898 0.519083 -0.312396
412.3887
412.3887
518.6658
518.6658
781.726
781.726
0.199795 0.346055 0.0
356.364
413.2259
528.5909
654.6461
661.0662
678.2272
0.199795 0.346055 0.062479
350.8081
418.9402
538.271
615.6552
679.9737
695.2172
0.199795 0.346055 0.124958
343.0023
433.7702
554.6232
571.3858
687.6369
724.0817
0.199795 0.346055 0.187438
345.7624
448.8406
530.4871
559.644
703.8072
741.4327
0.199795 0.346055 0.249917
365.2035
437.7512
516.8862
550.1755
723.5257
746.0726
0.199795 0.346055 -0.312396
399.762
399.762
532.3857
532.3857
739.1883
739.1883
0.199795 0.461407 0.0
420.959
469.4091
575.0117
599.5381
660.4909
723.8904
0.199795 0.461407 0.062479
409.0225
476.5113
568.0832
596.4596
678.0347
725.8721
0.199795 0.461407 0.124958
388.3625
486.0933
541.1296
609.2609
703.7942
734.8466
0.199795 0.461407 0.187438
374.7349
469.6199
538.5022
612.8087
725.2158
748.8825
0.199795 0.461407 0.249917
376.6761
432.0392
559.122
602.1317
743.4573
757.0733
0.199795 0.461407 -0.312396
397.2912
397.2912
582.5603
582.5603
755.0404
755.0404
0.199795 0.576759 0.0
456.926
484.2493
563.0794
601.9905
653.6554
738.3243
0.199795 0.576759 0.062479
438.7284
498.9047
539.0998
620.3977
665.4954
739.865
0.199795 0.576759 0.124958
411.7991
501.542
521.2639
636.6789
692.9969
746.3539
0.199795 0.576759 0.187438
390.9659
462.3484
546.5269
635.5543
722.6255
756.5586
0.199795 0.576759 0.249917
384.2876
425.0604
573.4875
621.2566
745.9287
762.714
0.199795 0.576759 -0.312396
396.4569
396.4569
599.3974
599.3974
759.5589
759.5589
0.299693 0.519083 0.0
475.457
541.8854
550.7554
603.1429
637.5309
734.4946
0.299693 0.519083 0.062479
460.3028
518.2401
561.7381
619.7468
654.8482
731.4985
0.299693 0.519083 0.124958
431.0476
481.6586
577.4157
650.47
686.8304
724.6009
0.299693 0.519083 0.187438
404.6097
444.3901
598.6968
669.8208
714.4575
721.8514
0.299693 0.519083 0.249917
389.7884
412.3081
623.0235
664.8682
729.7468
731.0897
0.299693 0.519083 -0.312396
392.2643
392.2643
646.4692
646.4692
735.5458
735.5458
P	=	5999.95	V	=	77.46076	E	=	-654.74042831
0.0 0.0 0.0
-0.0
0.0
0.0
440.458
440.458
867.8939
0.0 0.0 0.062458
67.5563
67.5563
155.1595
435.4331
435.4331
858.2284
0.0 0.0 0.124917
132.1614
132.1614
303.9098
419.5831
419.5831
830.5215
0.0 0.0 0.187375
192.7258
192.7258
391.6899
391.6899
439.7381
787.1627
0.0 0.0 0.249834
249.8546
249.8546
352.1492
352.1492
557.0717
728.7755
0.0 0.0 -0.312292
303.6849
303.6849
303.6849
303.6849
653.1191
653.1191
0.0 0.115378 0.0
122.0174
134.1159
278.7498
460.8452
497.0121
851.5398
0.0 0.115378 0.062458
150.9212
154.7177
308.474
456.1517
491.656
843.3662
0.0 0.115378 0.124917
190.5784
210.0168
387.2727
441.4517
475.0439
819.7768
0.0 0.115378 0.187375
238.4725
262.3988
415.8257
446.2632
486.714
782.3928
0.0 0.115378 0.249834
287.8975
312.5538
379.8028
407.3765
582.723
731.4141
0.0 0.115378 -0.312292
335.9848
335.9848
361.478
361.478
665.2415
665.2415
0.0 0.230756 0.0
235.5093
245.3769
504.3498
505.303
612.5287
805.7291
0.0 0.230756 0.062458
248.5609
255.7959
501.1976
519.0128
604.4727
803.4097
0.0 0.230756 0.124917
282.9637
283.2201
488.5439
554.5502
583.8708
795.3561
0.0 0.230756 0.187375
320.1302
329.6828
466.9134
538.2516
613.7753
779.0603
0.0 0.230756 0.249834
360.5011
382.2149
436.8813
490.6944
666.4642
752.2411
0.0 0.230756 -0.312292
400.4542
400.4542
437.0108
437.0108
714.1871
714.1871
0.0 0.346134 0.0
319.0639
334.2971
546.7895
645.9568
717.1609
740.1445
0.0 0.346134 0.062458
327.4955
337.8674
543.0236
651.4443
691.8542
764.3127
0.0 0.346134 0.124917
350.1145
350.3802
531.5816
628.8934
696.2157
788.4358
0.0 0.346134 0.187375
374.2721
382.3603
512.3499
578.698
727.9554
800.4123
0.0 0.346134 0.249834
412.5876
418.1439
485.8713
521.4286
759.4899
798.5674
0.0 0.346134 -0.312292
453.6751
453.6751
463.5884
463.5884
784.1081
784.1081
0.0 0.461512 0.0
355.0695
412.9809
572.2335
671.8583
713.2621
778.8954
0.0 0.461512 0.062458
362.603
410.9244
568.5119
653.9367
727.1155
791.1434
0.0 0.461512 0.124917
383.4058
407.9365
557.2663
617.2122
755.3344
814.455
0.0 0.461512 0.187375
411.7732
413.2106
538.4931
570.8847
786.4881
832.3621
0.0 0.461512 0.249834
430.9129
447.2881
512.7617
518.7146
813.0659
838.07
0.0 0.461512 -0.312292
468.5424
468.5424
481.555
481.555
831.0334
831.0334
0.0 -0.57689 0.0
364.6792
449.9018
580.3907
636.3145
732.1419
797.0748
0.0 -0.57689 0.062458
371.925
444.7908
576.6394
626.519
743.5657
806.7496
0.0 -0.57689 0.124917
392.074
434.3233
565.3085
600.0487
771.0675
827.4062
0.0 -0.57689 0.187375
421.2602
428.8612
546.4052
560.8824
802.2302
845.0702
0.0 -0.57689 0.249834
438.9137
455.0
514.0035
520.5242
828.4141
851.6471
0.0 -0.57689 -0.312292
469.2723
469.2723
489.2119
489.2119
845.6052
845.6052
0.09992 0.173067 0.0
206.3386
236.4733
427.3708
517.1569
571.6401
820.4002
0.09992 0.173067 0.062458
221.1031
247.0886
443.1403
515.9667
564.6687
815.7437
0.09992 0.173067 0.124917
258.3572
274.8239
469.581
525.585
543.7717
801.6958
0.09992 0.173067 0.187375
305.8937
311.7282
461.986
509.9219
575.3945
777.7107
0.09992 0.173067 0.249834
351.1758
355.2823
436.3241
466.6118
638.0048
742.6325
0.09992 0.173067 -0.312292
382.6572
382.6572
424.9303
424.9303
695.6441
695.6441
0.09992 0.288445 0.0
301.3683
332.8455
518.8506
624.3086
668.3705
764.2463
0.09992 0.288445 0.062458
303.5313
342.1461
523.5118
625.7128
657.2366
771.2184
0.09992 0.288445 0.124917
315.2235
365.4809
527.2397
607.3136
659.0213
781.7125
0.09992 0.288445 0.187375
341.2337
395.9714
517.3958
564.2799
688.591
784.1893
0.09992 0.288445 0.249834
380.0573
425.3014
494.2239
519.2029
723.3436
774.7129
0.09992 0.288445 -0.312292
421.6686
421.6686
487.5421
487.5421
753.5983
753.5983
0.09992 0.403823 0.0
385.9934
388.6953
571.3756
690.7786
695.3894
751.1876
0.09992 0.403823 0.062458
376.0594
403.329
570.995
662.0052
712.8451
766.7906
0.09992 0.403823 0.124917
370.6126
425.4988
562.7409
625.2724
734.9307
792.2093
0.09992 0.403823 0.187375
376.1239
452.1924
537.6823
590.9055
762.3048
809.6028
0.09992 0.403823 0.249834
397.6209
466.9767
511.6154
560.1265
787.865
814.1512
0.09992 0.403823 -0.312292
434.0627
434.0627
530.2568
530.2568
806.1764
806.1764
0.09992 0.519201 0.0
410.9102
447.6631
596.5465
636.544
719.3499
789.4558
0.09992 0.519201 0.062458
409.9019
449.5626
586.0297
633.782
731.5308
797.3717
0.09992 0.519201 0.124917
404.5141
461.4019
559.1961
624.2111
759.2637
815.4137
0.09992 0.519201 0.187375
400.6351
483.6714
523.3498
605.6012
790.0394
831.7625
0.09992 0.519201 0.249834
409.6238
475.7385
518.5135
579.5801
815.7848
838.1686
0.09992 0.519201 -0.312292
436.66
436.66
549.2483
549.2483
832.5035
832.5035
0.199841 0.346134 0.0
375.5085
436.3725
558.8344
694.1968
703.5513
722.4608
0.199841 0.346134 0.062458
369.9514
442.2944
568.7456
653.5098
724.3962
739.2898
0.199841 0.346134 0.124917
362.187
457.6616
585.5284
606.4272
732.6177
770.4188
0.199841 0.346134 0.187375
365.32
473.2439
563.0023
590.7577
749.5526
789.0507
0.199841 0.346134 0.249834
385.8921
462.1059
547.472
581.0643
770.1129
793.9302
0.199841 0.346134 -0.312292
422.3999
422.3999
562.7962
562.7962
786.5702
786.5702
0.199841 0.461512 0.0
444.0513
496.7897
608.6659
636.8911
701.8732
771.1685
0.199841 0.461512 0.062458
431.7996
504.1252
601.9682
632.5578
720.7571
773.2752
0.199841 0.461512 0.124917
410.5017
513.8168
574.1841
644.9415
748.6046
782.6843
0.199841 0.461512 0.187375
396.462
496.6538
570.9565
648.4839
771.6332
797.3578
0.199841 0.461512 0.249834
398.6776
457.2311
592.2602
637.3249
791.0641
805.8529
0.199841 0.461512 -0.312292
420.5287
420.5287
616.8135
616.8135
803.4941
803.4941
0.199841 0.57689 0.0
482.6071
513.1427
597.3494
637.2121
695.4228
786.5208
0.199841 0.57689 0.062458
463.6999
528.6669
571.2668
657.3169
707.6751
788.1906
0.199841 0.57689 0.124917
435.6476
531.1036
552.4769
674.775
736.4816
795.1311
0.199841 0.57689 0.187375
413.9884
489.5047
579.2098
673.5838
767.9837
805.8653
0.199841 0.57689 0.249834
407.0895
450.0995
607.7439
658.3996
793.151
812.0734
0.199841 0.57689 -0.312292
419.9378
419.9378
635.2093
635.2093
808.2034
808.2034
0.299761 0.519201 0.0
502.8014
574.6754
583.9939
639.6948
676.7627
781.3475
0.299761 0.519201 0.062458
486.8881
549.0607
595.9502
657.2475
695.2885
778.0768
0.299761 0.519201 0.124917
456.1347
510.0634
612.3496
689.7722
729.5881
770.6237
0.299761 0.519201 0.187375
428.3933
470.6048
634.7123
710.2092
759.2506
767.6937
0.299761 0.519201 0.249834
412.9231
436.7685
660.5405
705.0613
775.9205
777.1268
0.299761 0.519201 -0.312292
415.6293
415.6293
685.5316
685.5316
781.9727
781.9727
P	=	6999.92	V	=	74.34269	E	=	-654.6029271
0.0 0.0 0.0
-0.0
-0.0
0.0
460.3487
460.3487
918.0348
0.0 0.0 0.06244
70.2021
70.2021
163.2218
455.1511
455.1511
907.6195
0.0 0.0 0.12488
137.5045
137.5045
319.7121
438.7076
438.7076
877.7711
0.0 0.0 0.187319
200.859
200.859
409.648
409.648
462.6903
831.1391
0.0 0.0 0.249759
260.8397
260.8397
368.2849
368.2849
586.4219
768.6111
0.0 0.0 -0.312199
317.4221
317.4221
317.4221
317.4221
688.0818
688.0818
0.0 0.115397 0.0
128.3016
139.7964
293.1901
481.8369
519.7377
900.4371
0.0 0.115397 0.06244
157.2022
162.251
324.5348
476.9381
514.1904
891.6799
0.0 0.115397 0.12488
198.4392
219.5684
407.6264
461.5819
496.9353
866.3773
0.0 0.115397 0.187319
248.5089
274.0259
434.7701
466.8535
512.4758
826.2601
0.0 0.115397 0.249759
300.401
326.4853
397.0023
426.0961
613.7969
771.6849
0.0 0.115397 -0.312199
350.9676
350.9676
377.8675
377.8675
701.2064
701.2064
0.0 0.230795 0.0
246.9885
256.2378
528.8312
530.919
641.9332
851.2084
0.0 0.230795 0.06244
260.6887
267.0173
524.4664
546.2717
633.5803
848.7701
0.0 0.230795 0.12488
295.4924
296.6402
511.0558
582.8708
612.8962
840.1807
0.0 0.230795 0.187319
334.0154
345.3484
488.2227
564.0032
646.4376
822.6213
0.0 0.230795 0.249759
376.3331
400.249
456.6077
514.1347
702.1731
793.7156
0.0 0.230795 -0.312199
418.3064
418.3064
457.7357
457.7357
752.941
752.941
0.0 0.346192 0.0
334.2536
349.7727
572.8762
680.5346
754.5297
780.8172
0.0 0.346192 0.06244
342.9908
353.7959
568.8349
685.6074
728.8401
805.9873
0.0 0.346192 0.12488
366.7509
367.1463
556.6171
661.0154
733.947
831.6682
0.0 0.346192 0.187319
392.8085
400.0473
536.2282
608.2301
767.12
844.3459
0.0 0.346192 0.249759
433.1879
437.3994
508.3359
547.9111
800.3726
842.1676
0.0 0.346192 -0.312199
474.5676
474.5676
486.9337
486.9337
826.5747
826.5747
0.0 0.46159 0.0
373.3392
431.8102
599.9781
707.5393
752.4612
822.2322
0.0 0.46159 0.06244
381.1668
430.1736
596.0049
688.5218
766.8701
835.1786
0.0 0.46159 0.12488
402.7691
428.0542
584.0483
649.5951
796.2129
859.8533
0.0 0.46159 0.187319
432.8146
433.6972
564.2177
600.6388
828.882
878.6985
0.0 0.46159 0.249759
453.1987
469.0581
537.2236
545.6319
857.1235
884.4295
0.0 0.46159 -0.312199
492.812
492.812
504.6712
504.6712
876.5354
876.5354
0.0 -0.576987 0.0
384.1112
470.5563
608.6763
669.4007
773.0035
842.4728
0.0 -0.576987 0.06244
391.6498
465.8698
604.6908
659.0652
784.5891
852.6513
0.0 -0.576987 0.12488
412.5729
456.1428
592.6923
631.1277
812.8495
874.3601
0.0 -0.576987 0.187319
442.8044
451.2362
572.7868
589.8548
845.4712
892.7733
0.0 -0.576987 0.249759
461.9809
477.7077
540.5891
545.7103
873.4366
899.26
0.0 -0.576987 -0.312199
493.7271
493.7271
513.1452
513.1452
892.2322
892.2322
0.099937 0.173096 0.0
216.5746
246.8358
448.8253
542.35
598.3663
866.9767
0.099937 0.173096 0.06244
231.9487
257.8092
465.1023
541.385
591.1288
862.0451
0.099937 0.173096 0.12488
270.6441
286.5903
491.4469
552.9929
569.3874
847.0724
0.099937 0.173096 0.187319
320.0308
325.0952
482.9672
534.0402
606.0607
821.3439
0.099937 0.173096 0.249759
366.4282
371.5006
456.1047
488.644
672.2559
783.6865
0.099937 0.173096 -0.312199
399.5579
399.5579
444.7764
444.7764
733.4727
733.4727
0.099937 0.288494 0.0
315.6098
347.9914
543.6508
657.0619
702.0384
806.756
0.099937 0.288494 0.06244
317.9686
357.6664
548.2351
658.056
691.1518
814.0467
0.099937 0.288494 0.12488
330.3337
381.9416
551.6758
637.5628
694.631
825.0747
0.099937 0.288494 0.187319
357.5748
413.7161
541.3158
592.3966
725.753
827.5134
0.099937 0.288494 0.249759
398.1743
444.3518
517.7
544.559
762.3494
817.1368
0.099937 0.288494 -0.312199
441.3161
441.3161
510.8704
510.8704
794.4629
794.4629
0.099937 0.403891 0.0
403.7946
407.5475
598.9131
727.833
732.9911
792.0134
0.099937 0.403891 0.06244
393.7973
422.7268
598.324
697.0197
751.7902
808.5436
0.099937 0.403891 0.12488
388.5043
445.9778
589.6584
657.7861
774.9918
835.6022
0.099937 0.403891 0.187319
394.6883
473.7324
564.2013
620.6555
803.6284
854.0457
0.099937 0.403891 0.249759
417.4526
489.2455
537.3884
587.5564
830.542
858.6993
0.099937 0.403891 -0.312199
455.6183
455.6183
556.1507
556.1507
850.0309
850.0309
0.099937 0.519289 0.0
431.9529
468.4909
625.516
669.9476
759.0418
833.8182
0.099937 0.519289 0.06244
430.4183
471.4266
614.667
666.7091
771.5375
842.1746
0.099937 0.519289 0.12488
424.6072
484.8191
586.8505
656.0146
800.2384
861.1757
0.099937 0.519289 0.187319
420.9852
508.0825
549.6734
635.9699
832.5073
878.2513
0.099937 0.519289 0.249759
430.6727
499.6325
544.7441
608.4124
859.9336
884.6294
0.099937 0.519289 -0.312199
458.9688
458.9688
576.6411
576.6411
878.1068
878.1068
0.199874 0.346192 0.0
393.0302
456.7195
586.1887
729.6121
741.9314
762.1489
0.199874 0.346192 0.06244
387.414
462.8223
596.2258
687.5571
764.2586
779.0049
0.199874 0.346192 0.12488
379.6277
478.6825
613.1997
638.1037
773.0173
812.1987
0.199874 0.346192 0.187319
383.1972
494.8515
592.5582
618.4499
790.7154
832.0261
0.199874 0.346192 0.249759
404.9904
484.1812
575.0585
608.5349
812.1084
837.1425
0.199874 0.346192 -0.312199
443.2937
443.2937
589.9511
589.9511
829.3355
829.3355
0.199874 0.46159 0.0
465.1654
521.1527
638.896
670.8067
739.084
813.593
0.199874 0.46159 0.06244
452.5357
528.7011
632.4443
665.2436
759.2175
815.8248
0.199874 0.46159 0.12488
430.6019
538.5042
604.1357
676.9398
788.9411
825.6739
0.199874 0.46159 0.187319
416.337
521.1024
600.2393
680.2921
813.394
840.9571
0.199874 0.46159 0.249759
419.0768
480.449
621.9736
668.6713
833.878
849.7261
0.199874 0.46159 -0.312199
442.1698
442.1698
647.3981
647.3981
847.0667
847.0667
0.199874 0.576987 0.0
506.0563
539.0755
628.5879
668.5908
733.1469
829.7471
0.199874 0.576987 0.06244
486.3705
555.4824
600.3685
690.3983
745.7637
831.5418
0.199874 0.576987 0.12488
457.2906
557.8299
580.6173
708.8492
775.6899
838.9104
0.199874 0.576987 0.187319
435.0786
514.25
608.632
707.5033
808.7903
850.1252
0.199874 0.576987 0.249759
428.2699
473.235
638.4789
691.5168
835.5649
856.3702
0.199874 0.576987 -0.312199
441.845
441.845
667.2161
667.2161
851.8618
851.8618
0.299811 0.519289 0.0
527.8658
604.6395
613.6861
672.5993
711.9515
823.3113
0.299811 0.519289 0.06244
511.1487
576.9862
626.7082
691.032
731.6429
819.7888
0.299811 0.519289 0.12488
478.9616
535.8197
643.7751
725.1049
768.0577
811.8412
0.299811 0.519289 0.187319
450.2149
494.6164
667.0881
746.3367
799.5084
808.8077
0.299811 0.519289 0.249759
434.4846
459.5324
694.1756
740.9249
817.3608
818.4554
0.299811 0.519289 -0.312199
437.5679
437.5679
720.4411
720.4411
823.6319
823.6319
P	=	8000.23	V	=	71.66421	E	=	-654.46656481
0.0 0.0 0.0
-0.0
-0.0
-0.0
478.3913
478.3913
963.8
0.0 0.0 0.062419
72.6357
72.6357
170.7142
473.0373
473.0373
952.714
0.0 0.0 0.124839
142.4686
142.4686
334.354
456.0763
456.0763
920.9438
0.0 0.0 0.187258
208.4751
208.4751
426.0308
426.0308
483.8766
871.3617
0.0 0.0 0.249678
271.1274
271.1274
383.1308
383.1308
613.418
805.0909
0.0 0.0 -0.312097
330.1923
330.1923
330.1923
330.1923
720.155
720.155
0.0 0.115418 0.0
134.1767
144.8988
306.5215
500.9303
540.3506
945.0419
0.0 0.115418 0.062419
162.8522
169.3042
339.3429
495.8396
534.6335
935.7779
0.0 0.115418 0.124839
205.5696
228.4188
426.4107
479.8915
516.8305
908.9681
0.0 0.115418 0.187258
257.7189
284.759
452.0485
485.6426
536.2457
866.4053
0.0 0.115418 0.249678
311.9492
339.3831
412.7766
443.3078
642.3797
808.5783
0.0 0.115418 -0.312097
364.7883
364.7883
393.0299
393.0299
734.2038
734.2038
0.0 0.230837 0.0
257.6482
266.1143
550.3357
555.4063
668.7659
892.6463
0.0 0.230837 0.062419
271.9931
277.1984
545.7194
571.3295
660.1596
890.1425
0.0 0.230837 0.124839
306.6099
309.367
531.5957
608.6129
639.68
881.1453
0.0 0.230837 0.187258
346.6416
359.8165
507.6713
587.5324
676.5137
862.4877
0.0 0.230837 0.249678
390.8043
416.8589
474.6471
535.6763
734.9985
831.7102
0.0 0.230837 -0.312097
434.6555
434.6555
476.8295
476.8295
788.4961
788.4961
0.0 0.346255 0.0
348.2182
363.9955
596.8421
712.3103
789.0141
817.8583
0.0 0.346255 0.062419
357.2041
368.468
592.5297
716.8249
762.985
844.0762
0.0 0.346255 0.124839
381.7183
382.8557
579.5672
690.3415
768.7342
871.2048
0.0 0.346255 0.187258
409.8665
416.2205
558.1082
635.2898
803.1197
884.5444
0.0 0.346255 0.249678
452.1172
455.0495
528.94
572.2403
837.8992
882.0943
0.0 0.346255 -0.312097
493.7431
493.7431
508.3934
508.3934
865.5093
865.5093
0.0 0.461674 0.0
390.2234
448.9286
625.6028
740.0923
788.6126
862.384
0.0 0.461674 0.062419
398.293
447.6909
621.3809
720.1292
803.457
875.8829
0.0 0.461674 0.124839
420.5868
446.3914
608.7396
679.2302
833.7048
901.6793
0.0 0.461674 0.187258
452.0254
452.5489
587.9292
627.901
867.6729
921.2899
0.0 0.461674 0.249678
473.5958
489.1309
559.7924
570.3227
897.4341
926.9689
0.0 0.461674 -0.312097
515.0706
515.0706
526.0109
526.0109
918.2214
918.2214
0.0 -0.577092 0.0
402.0901
489.2183
634.8653
699.6699
810.7929
884.5486
0.0 -0.577092 0.062419
409.8725
484.9394
630.6483
688.8349
822.4214
895.1498
0.0 -0.577092 0.124839
431.4718
475.9318
618.0073
659.5505
851.1627
917.7298
0.0 -0.577092 0.187258
462.6757
471.591
597.174
616.3673
884.9778
936.7156
0.0 -0.577092 0.249678
483.05
498.6998
564.9457
569.0149
914.5736
942.9963
0.0 -0.577092 -0.312097
516.1282
516.1282
535.3011
535.3011
934.9369
934.9369
0.099955 0.173128 0.0
226.1089
256.2663
468.3831
565.6131
622.628
909.4289
0.099955 0.173128 0.062419
242.0886
267.5457
485.0385
564.8922
615.1553
904.2857
0.099955 0.173128 0.124839
282.0736
297.2653
511.216
578.3694
592.6917
888.5476
0.099955 0.173128 0.187258
333.0415
337.2663
502.0555
556.0876
634.3411
861.2852
0.099955 0.173128 0.249678
380.3627
386.3563
474.2259
508.9112
703.7651
821.3052
0.099955 0.173128 -0.312097
414.9551
414.9551
463.1303
463.1303
768.1892
768.1892
0.099955 0.288546 0.0
328.7888
361.8745
566.154
687.2541
733.0428
845.4797
0.099955 0.288546 0.062419
331.3647
371.8737
570.6447
687.6537
722.5474
853.1069
0.099955 0.288546 0.124839
344.332
396.982
573.8238
665.1559
727.5957
864.6871
0.099955 0.288546 0.187258
372.568
429.9195
563.0499
618.139
760.0352
867.1404
0.099955 0.288546 0.249678
414.6581
461.7063
539.1339
567.8902
798.2412
855.9955
0.099955 0.288546 -0.312097
459.1099
459.1099
532.3725
532.3725
831.972
831.972
0.099955 0.403965 0.0
420.1341
424.8756
624.1224
761.9113
767.2871
829.8621
0.099955 0.403965 0.062419
410.1167
440.5262
623.3254
729.0361
787.6429
847.0387
0.099955 0.403965 0.124839
404.9529
464.7534
614.2513
687.5289
811.8684
875.4418
0.099955 0.403965 0.187258
411.6406
493.4879
588.3813
647.9275
841.59
894.7893
0.099955 0.403965 0.249678
435.4345
509.5523
560.9893
612.7583
869.6934
899.5267
0.099955 0.403965 -0.312097
475.1332
475.1332
579.9798
579.9798
890.2339
890.2339
0.099955 0.519383 0.0
451.3065
487.4631
652.2246
700.5281
795.664
874.9372
0.099955 0.519383 0.062419
449.2727
491.3725
641.0508
696.867
808.3564
883.6553
0.099955 0.519383 0.124839
443.048
506.2031
612.2757
685.1597
837.7745
903.434
0.099955 0.519383 0.187258
439.53
530.4564
573.7575
663.8563
871.298
921.0547
0.099955 0.519383 0.249678
449.7197
521.3596
568.863
634.9646
900.2605
927.2812
0.099955 0.519383 -0.312097
479.1366
479.1366
601.8963
601.8963
919.8507
919.8507
0.199911 0.346255 0.0
409.2224
475.4229
610.934
762.065
776.9518
799.0887
0.199911 0.346255 0.062419
403.5892
481.6738
621.041
718.7282
801.3323
815.285
0.199911 0.346255 0.124839
395.7605
497.9468
638.1444
667.1285
810.5093
850.3495
0.199911 0.346255 0.187258
399.5306
514.5739
619.627
643.47
828.7909
871.2945
0.199911 0.346255 0.249678
422.1915
504.0877
600.3994
633.5043
850.8036
876.6943
0.199911 0.346255 -0.312097
462.0308
462.0308
614.8045
614.8045
868.5913
868.5913
0.199911 0.461674 0.0
484.6439
543.4657
666.4903
701.891
773.3135
852.9457
0.199911 0.461674 0.062419
471.7086
551.2126
660.301
695.1585
794.5064
855.2623
0.199911 0.461674 0.124839
449.1584
561.1774
631.5128
706.0468
825.9231
865.3776
0.199911 0.461674 0.187258
434.4342
543.4213
626.9518
709.223
851.6895
881.0244
0.199911 0.461674 0.249678
437.3109
501.309
649.1261
697.2579
873.0905
889.9256
0.199911 0.461674 -0.312097
461.4035
461.4035
675.3485
675.3485
886.9491
886.9491
0.199911 0.577092 0.0
527.6296
562.7821
657.3408
697.4507
767.8418
869.7505
0.199911 0.577092 0.062419
507.3031
579.9407
627.2318
720.7272
780.7186
871.6489
0.199911 0.577092 0.124839
477.2624
582.485
606.2423
740.0171
811.5266
879.3461
0.199911 0.577092 0.187258
454.2713
536.8289
635.4395
738.541
845.9847
890.8622
0.199911 0.577092 0.249678
447.1609
493.9618
666.5454
721.8415
874.2104
896.9692
0.199911 0.577092 -0.312097
461.2401
461.2401
696.5057
696.5057
891.7247
891.7247
0.299866 0.519383 0.0
551.0587
632.2768
640.7929
702.8014
744.3247
862.0584
0.299866 0.519383 0.062419
533.6574
602.8142
654.7535
721.9707
765.0131
858.3031
0.299866 0.519383 0.124839
500.1062
559.6405
672.3366
757.3474
803.2628
849.8869
0.299866 0.519383 0.187258
470.0893
516.5105
696.4917
779.2715
836.2579
846.6362
0.299866 0.519383 0.249678
453.6212
479.7946
724.783
773.6758
855.2502
856.112
0.299866 0.519383 -0.312097
456.8193
456.8193
752.2925
752.2925
861.592
861.592
P	=	9000.0	V	=	69.32885	E	=	-654.33177581
0.0 0.0 0.0
-0.0
0.0
0.0
495.1945
495.1945
1006.2902
0.0 0.0 0.0624
74.7266
74.7266
177.6686
489.6776
489.6776
994.5907
0.0 0.0 0.124801
146.8387
146.8387
347.9372
472.2033
472.2033
961.0533
0.0 0.0 0.187201
215.3565
215.3565
441.229
441.229
503.5232
908.7371
0.0 0.0 0.249602
280.5904
280.5904
396.9087
396.9087
638.4558
838.9749
0.0 0.0 -0.312002
342.0296
342.0296
342.0296
342.0296
749.922
749.922
0.0 0.115434 0.0
139.7132
149.6216
318.7295
518.6455
559.4009
986.4783
0.0 0.115434 0.0624
168.0266
175.8777
352.9436
513.3522
553.5111
976.7507
0.0 0.115434 0.124801
212.0505
236.4833
443.7986
496.8075
535.1695
948.5542
0.0 0.115434 0.187201
266.1369
294.4582
467.9842
502.9416
558.3262
903.7253
0.0 0.115434 0.249602
322.5817
351.0997
427.3316
459.1196
668.9547
842.8748
0.0 0.115434 -0.312002
377.5484
377.5484
406.9021
406.9021
764.8792
764.8792
0.0 0.230867 0.0
267.6752
275.1971
570.1958
577.8447
693.4174
931.1938
0.0 0.230867 0.0624
282.6159
286.5439
565.3167
594.3168
684.5618
928.6201
0.0 0.230867 0.124801
316.7966
321.2334
550.473
632.259
664.2963
919.2206
0.0 0.230867 0.187201
358.2287
373.1449
525.5066
609.1174
704.285
899.5171
0.0 0.230867 0.249602
404.1115
432.0487
491.1983
555.3874
765.4278
866.9862
0.0 0.230867 -0.312002
449.6837
449.6837
494.2724
494.2724
821.497
821.497
0.0 0.346301 0.0
361.0511
377.3462
618.9227
741.5081
820.7016
852.3583
0.0 0.346301 0.0624
370.2511
382.2207
614.3345
745.5635
794.4072
879.3959
0.0 0.346301 0.124801
395.4412
397.5171
600.6355
717.3991
800.6859
907.783
0.0 0.346301 0.187201
425.6953
431.0632
578.1669
660.2021
836.2682
921.6849
0.0 0.346301 0.249602
469.6006
471.2724
547.8442
594.6263
872.5204
918.9665
0.0 0.346301 -0.312002
511.3649
511.3649
528.1604
528.1604
901.4593
901.4593
0.0 0.461735 0.0
405.8141
464.9925
649.1515
770.407
822.0044
899.2745
0.0 0.461735 0.0624
414.091
464.0681
644.6803
749.4778
837.2166
913.3187
0.0 0.461735 0.124801
436.9993
463.4147
631.3733
706.6205
868.2351
940.1727
0.0 0.461735 0.187201
469.7812
469.9142
609.658
653.0251
903.3778
960.4959
0.0 0.461735 0.249602
492.4335
507.6279
580.5121
593.0799
934.5542
966.1444
0.0 0.461735 -0.312002
535.6167
535.6167
545.6521
545.6521
956.6215
956.6215
0.0 -0.577169 0.0
418.7412
506.7529
658.8979
727.8235
845.7716
923.2104
0.0 -0.577169 0.0624
426.7332
502.7693
654.4489
716.4461
857.3981
934.2137
0.0 -0.577169 0.124801
448.9321
494.2688
641.1866
685.7783
886.4924
957.6097
0.0 -0.577169 0.187201
481.0264
490.3552
619.5066
640.7657
921.3474
977.1391
0.0 -0.577169 0.249602
502.4744
518.0775
587.3783
590.4095
952.4423
983.2564
0.0 -0.577169 -0.312002
536.7925
536.7925
555.7103
555.7103
974.2601
974.2601
0.099969 0.173151 0.0
235.0871
264.8355
486.3821
587.0312
644.9685
948.9059
0.099969 0.173151 0.0624
251.6283
276.3731
503.4023
586.5002
637.2738
943.5647
0.099969 0.173151 0.124801
292.7265
306.9343
529.45
601.6802
614.1316
927.1096
0.099969 0.173151 0.187201
345.0168
348.3441
519.5504
576.3471
660.504
898.4125
0.099969 0.173151 0.249602
393.1247
399.9682
490.7839
527.4875
733.0225
856.2685
0.099969 0.173151 -0.312002
429.1179
429.1179
479.8674
479.8674
800.453
800.453
0.099969 0.288584 0.0
341.1897
374.4204
586.9128
714.9446
761.6071
881.5482
0.099969 0.288584 0.0624
343.9614
384.7052
591.293
714.8214
751.4597
889.4482
0.099969 0.288584 0.124801
357.4567
410.5618
594.1658
690.6249
757.8504
901.4711
0.099969 0.288584 0.187201
386.5421
444.6048
582.9618
641.858
791.6179
903.8796
0.099969 0.288584 0.249602
429.9303
477.5518
558.764
589.3416
831.4008
891.9832
0.099969 0.288584 -0.312002
475.5083
475.5083
552.0734
552.0734
866.6781
866.6781
0.099969 0.404018 0.0
435.506
440.6551
647.3023
793.3713
799.2749
864.6369
0.099969 0.404018 0.0624
425.3348
456.8164
646.2923
758.7567
820.7325
882.5177
0.099969 0.404018 0.124801
420.2835
481.8479
636.8222
715.039
845.8328
912.2017
0.099969 0.404018 0.187201
427.4304
511.4664
610.6287
673.0377
876.5572
932.3687
0.099969 0.404018 0.249602
452.1754
528.177
582.7267
635.8859
905.7757
937.1725
0.099969 0.404018 -0.312002
493.2354
493.2354
601.8424
601.8424
927.2987
927.2987
0.099969 0.519452 0.0
469.0862
505.3327
676.7228
729.0489
829.578
912.6955
0.099969 0.519452 0.0624
466.6551
509.9841
665.2733
724.862
842.4229
921.7678
0.099969 0.519452 0.124801
460.1171
525.9099
635.6379
712.0129
872.4288
942.2888
0.099969 0.519452 0.187201
456.7185
550.9831
595.9518
689.435
907.0502
960.4273
0.099969 0.519452 0.249602
467.4334
541.4431
591.0322
659.2982
937.4072
966.5374
0.099969 0.519452 -0.312002
497.8938
497.8938
625.0676
625.0676
958.2924
958.2924
0.199937 0.346301 0.0
424.4978
492.1683
633.7942
792.1041
809.6507
832.9733
0.199937 0.346301 0.0624
418.8231
498.524
643.9274
747.6666
835.3463
849.0263
0.199937 0.346301 0.124801
410.909
515.1488
661.0634
694.0681
844.9375
885.7468
0.199937 0.346301 0.187201
414.8451
532.3126
644.7042
666.3857
863.8128
907.65
0.199937 0.346301 0.249602
438.2979
522.3516
623.6956
656.3523
886.4551
913.2454
0.199937 0.346301 -0.312002
479.4739
479.4739
637.5558
637.5558
904.813
904.813
0.199937 0.461735 0.0
503.0603
563.7002
691.867
731.0039
805.0344
889.0452
0.199937 0.461735 0.0624
489.7388
571.6156
686.0234
722.9663
827.2265
891.4623
0.199937 0.461735 0.124801
466.4989
581.6939
656.8935
732.8305
860.1116
901.9009
0.199937 0.461735 0.187201
451.3516
563.8425
651.5406
735.7323
886.9976
917.9403
0.199937 0.461735 0.249602
454.4382
520.6751
674.0015
723.4193
909.2209
926.969
0.199937 0.461735 -0.312002
479.4464
479.4464
700.931
700.931
923.6972
923.6972
0.199937 0.577169 0.0
548.0428
584.4812
684.3072
723.9014
799.9958
906.4285
0.199937 0.577169 0.0624
526.9167
602.4352
652.1851
748.6756
813.1069
908.4346
0.199937 0.577169 0.124801
495.8411
605.2569
629.7968
768.6501
844.6859
916.4642
0.199937 0.577169 0.187201
472.1417
557.7097
660.0511
766.9599
880.3356
928.2887
0.199937 0.577169 0.249602
464.8865
513.3021
692.2766
749.5793
909.8506
934.31
0.199937 0.577169 -0.312002
479.4822
479.4822
723.3183
723.3183
928.4398
928.4398
0.299906 0.519452 0.0
573.0142
658.3111
665.6078
730.6171
774.2003
897.5454
0.299906 0.519452 0.0624
554.8302
626.8421
680.6159
750.498
795.8583
893.5692
0.299906 0.519452 0.124801
519.8303
581.6818
698.6271
787.05
835.7908
884.717
0.299906 0.519452 0.187201
488.6429
536.8087
723.4984
809.4979
870.173
881.3322
0.299906 0.519452 0.249602
471.6487
498.7841
752.8135
803.6147
890.1274
890.8519
0.299906 0.519452 -0.312002
475.021
475.021
781.4
781.4
896.5968
896.5968
P	=	9999.97	V	=	67.26134	E	=	-654.19837838
0.0 0.0 0.0
-0.0
-0.0
-0.0
510.6782
510.6782
1045.8342
0.0 0.0 0.06238
76.5971
76.5971
184.077
505.0059
505.0059
1033.5712
0.0 0.0 0.124759
150.8195
150.8195
360.5573
487.0596
487.0596
998.4343
0.0 0.0 0.187139
221.7289
221.7289
455.2629
455.2629
521.9424
943.6837
0.0 0.0 0.249518
289.4227
289.4227
409.695
409.695
662.0627
870.8111
0.0 0.0 -0.311898
353.0711
353.0711
353.0711
353.0711
777.9972
777.9972
0.0 0.115449 0.0
145.0392
154.1288
330.0724
535.0134
576.9289
1025.1006
0.0 0.115449 0.06238
172.8893
182.1103
365.5346
529.5154
570.8638
1014.94
0.0 0.115449 0.124759
218.0556
244.0426
459.916
512.3951
552.0056
985.4786
0.0 0.115449 0.187139
273.956
303.5249
482.6836
518.8425
578.9614
938.6343
0.0 0.115449 0.249518
332.502
362.0445
440.82
473.7262
693.9633
875.0979
0.0 0.115449 -0.311898
389.4376
389.4376
419.8041
419.8041
793.7907
793.7907
0.0 0.230898 0.0
277.2838
283.861
588.5956
598.7836
716.1223
967.2416
0.0 0.230898 0.06238
292.7394
295.3978
583.4357
615.7101
707.0251
964.5715
0.0 0.230898 0.124759
326.3482
332.4781
567.8601
654.03
687.1166
954.7572
0.0 0.230898 0.187139
369.0595
385.7767
541.9221
628.9554
730.1595
934.1067
0.0 0.230898 0.249518
416.5473
446.415
506.502
573.6467
793.9
900.0196
0.0 0.230898 -0.311898
463.6738
463.6738
510.6212
510.6212
852.4411
852.4411
0.0 0.346347 0.0
373.2615
390.0454
639.3553
768.7506
850.1754
884.6934
0.0 0.346347 0.06238
382.6217
395.264
634.471
772.2418
823.7935
912.3501
0.0 0.346347 0.124759
408.3744
411.3819
620.0195
742.4303
830.5466
941.8112
0.0 0.346347 0.187139
440.7014
445.0054
596.6129
683.3052
867.1872
956.2257
0.0 0.346347 0.249518
486.2064
486.4716
565.3175
615.5478
904.8222
953.3147
0.0 0.346347 -0.311898
527.7806
527.7806
546.8267
546.8267
934.9998
934.9998
0.0 0.461795 0.0
420.5909
480.1555
670.8823
798.808
853.1624
933.8811
0.0 0.461795 0.06238
429.038
479.4825
666.1531
776.9244
868.708
948.3817
0.0 0.461795 0.124759
452.4778
479.3754
652.19
732.1852
900.3763
976.1376
0.0 0.461795 0.187139
486.2524
486.4526
629.6601
676.4958
936.5748
997.0795
0.0 0.461795 0.249518
510.2016
524.9787
599.6894
614.4412
969.1013
1002.6865
0.0 0.461795 -0.311898
555.0005
555.0005
563.9692
563.9692
992.4145
992.4145
0.0 -0.577244 0.0
434.4924
523.2576
681.0457
754.1698
878.4341
959.5785
0.0 -0.577244 0.06238
442.6632
519.4909
676.3641
742.2772
890.0103
970.9171
0.0 -0.577244 0.124759
465.3917
511.3699
662.5065
710.3109
919.3369
994.9939
0.0 -0.577244 0.187139
498.2927
507.8539
640.0808
663.6241
955.1179
1014.9612
0.0 -0.577244 0.249518
520.6911
536.258
608.4669
610.228
987.6582
1020.8682
0.0 -0.577244 -0.311898
556.2485
556.2485
574.7524
574.7524
1010.9221
1010.9221
0.099982 0.173173 0.0
243.7079
272.9409
503.1445
606.8986
665.5301
985.7906
0.099982 0.173173 0.06238
260.7337
284.6649
520.4309
606.5383
657.6055
980.2445
0.099982 0.173173 0.124759
302.831
315.9267
546.2421
623.3228
633.8017
963.1052
0.099982 0.173173 0.187139
356.3615
358.6299
535.645
594.9621
684.8959
933.1239
0.099982 0.173173 0.249518
404.992
412.8033
506.1001
544.684
760.4517
889.0617
0.099982 0.173173 -0.311898
442.2833
442.2833
495.5087
495.5087
830.77
830.77
0.099982 0.288622 0.0
353.0427
386.2589
606.1537
740.7003
788.1345
915.3421
0.099982 0.288622 0.06238
355.9645
396.7707
610.363
739.9631
778.4189
923.421
0.099982 0.288622 0.124759
369.9246
423.2568
612.8412
714.1037
786.1049
935.7497
0.099982 0.288622 0.187139
399.8368
458.3019
601.2326
663.7758
821.1208
938.1009
0.099982 0.288622 0.249518
444.4251
492.3132
576.9263
609.3333
862.4129
925.5726
0.099982 0.288622 -0.311898
490.8581
490.8581
570.5156
570.5156
899.1362
899.1362
0.099982 0.404071 0.0
450.0966
455.5344
668.6991
822.676
829.2755
897.1994
0.099982 0.404071 0.06238
439.7346
472.1552
667.4502
786.4587
851.6961
915.6593
0.099982 0.404071 0.124759
434.7601
497.8799
657.5557
740.5988
877.5691
946.4399
0.099982 0.404071 0.187139
442.3757
528.3055
631.1209
696.3437
909.1939
967.3452
0.099982 0.404071 0.249518
468.0557
545.6005
602.9842
657.3926
939.4521
972.253
0.099982 0.404071 -0.311898
510.3028
510.3028
622.2597
622.2597
961.8831
961.8831
0.099982 0.51952 0.0
485.84
522.206
699.2949
755.7782
861.2381
948.1745
0.099982 0.51952 0.06238
483.0237
527.4849
687.6276
751.0008
874.1877
957.5444
0.099982 0.51952 0.124759
476.1569
544.3483
657.2591
736.9406
904.664
978.6851
0.099982 0.51952 0.187139
472.8737
570.1875
616.5819
713.1391
940.277
997.2466
0.099982 0.51952 0.249518
484.1477
560.2795
611.7558
681.9161
971.9799
1003.208
0.099982 0.51952 -0.311898
515.5921
515.5921
646.6975
646.6975
994.1484
994.1484
0.199963 0.346347 0.0
439.0543
507.8419
654.9458
819.9223
840.3365
864.7782
0.199963 0.346347 0.06238
433.3048
514.2661
665.031
774.5733
867.2659
880.472
0.199963 0.346347 0.124759
425.277
531.1734
682.0664
719.0659
877.2389
918.622
0.199963 0.346347 0.187139
429.4163
548.8215
668.0019
687.3698
896.6642
941.4072
0.199963 0.346347 0.249518
453.6505
539.3854
645.4633
677.4201
919.863
947.2806
0.199963 0.346347 -0.311898
495.9589
495.9589
658.726
658.726
938.6681
938.6681
0.199963 0.461795 0.0
520.5341
582.6271
715.3533
758.3501
834.5611
922.9076
0.199963 0.461795 0.06238
506.7868
590.6807
709.8591
748.9177
857.6878
925.4057
0.199963 0.461795 0.124759
482.8359
600.8423
680.4557
757.547
891.9417
936.0852
0.199963 0.461795 0.187139
467.3416
582.9022
674.4152
760.1505
919.934
952.4052
0.199963 0.461795 0.249518
470.7265
538.8833
697.197
747.6377
942.9639
961.5416
0.199963 0.461795 -0.311898
496.5751
496.5751
724.7487
724.7487
958.0173
958.0173
0.199963 0.577244 0.0
567.3629
604.8066
709.6507
748.3599
830.0301
940.7893
0.199963 0.577244 0.06238
545.4009
623.4817
675.5106
774.5758
843.3249
942.8906
0.199963 0.577244 0.124759
513.2772
626.5011
651.751
795.1007
875.5516
951.2119
0.199963 0.577244 0.187139
488.9542
577.2441
682.979
793.2308
912.2816
963.291
0.199963 0.577244 0.249518
481.693
531.5494
716.2906
775.3413
943.0391
969.2001
0.199963 0.577244 -0.311898
496.8175
496.8175
748.3279
748.3279
962.6984
962.6984
0.299945 0.51952 0.0
593.7957
682.8385
688.7501
756.589
802.0564
930.6472
0.299945 0.51952 0.06238
574.7921
649.358
704.7361
777.1098
824.6147
926.455
0.299945 0.51952 0.124759
538.3407
602.279
723.0436
814.6499
866.0605
917.2161
0.299945 0.51952 0.187139
506.113
555.8272
748.5997
837.5073
901.7012
913.7724
0.299945 0.51952 0.249518
488.7859
516.7525
778.964
831.4683
922.7084
923.1785
0.299945 0.51952 -0.311898
492.3819
492.3819
808.5844
808.5844
929.2327
929.2327
P	=	11000.01	V	=	65.41078	E	=	-654.06638307
0.0 0.0 0.0
-0.0
-0.0
0.0
525.195
525.195
1083.0544
0.0 0.0 0.062359
78.1821
78.1821
190.1953
519.3805
519.3805
1070.3182
0.0 0.0 0.124718
154.3143
154.3143
372.5225
501.0069
501.0069
1033.7831
0.0 0.0 0.187078
227.5218
227.5218
468.4666
468.4666
539.2879
976.7754
0.0 0.0 0.249437
297.6408
297.6408
421.7465
421.7465
684.2319
900.8909
0.0 0.0 -0.311796
363.4559
363.4559
363.4559
363.4559
804.4157
804.4157
0.0 0.115463 0.0
150.0417
158.3318
340.5785
550.3497
593.2812
1061.4883
0.0 0.115463 0.062359
177.3825
188.0177
377.2686
544.658
587.0796
1050.9632
0.0 0.115463 0.124718
223.5721
251.1069
475.1115
527.0001
567.8002
1020.3915
0.0 0.115463 0.187078
281.1947
311.9018
496.4718
533.811
598.4676
971.6795
0.0 0.115463 0.249437
341.7743
372.1892
453.4919
487.4645
717.5749
905.5697
0.0 0.115463 -0.311796
400.604
400.604
431.8663
431.8663
821.0864
821.0864
0.0 0.230926 0.0
286.3489
292.0054
605.8595
618.2745
737.328
1001.2984
0.0 0.230926 0.062359
302.3385
303.7166
600.4326
635.6973
728.0638
998.5359
0.0 0.230926 0.124718
335.3201
343.1766
584.1663
674.4761
708.6564
988.3298
0.0 0.230926 0.187078
379.2438
397.7304
557.3244
647.7226
754.6228
966.791
0.0 0.230926 0.249437
428.2528
459.9305
520.881
590.8928
820.8601
931.2488
0.0 0.230926 -0.311796
476.8378
476.8378
526.0052
526.0052
881.7213
881.7213
0.0 0.346389 0.0
384.8602
402.1006
658.6274
794.3197
877.9539
915.3706
0.0 0.346389 0.062359
394.3721
407.6643
653.4691
797.3664
851.5594
943.5047
0.0 0.346389 0.124718
420.6565
424.609
638.3225
766.1819
858.7373
973.9198
0.0 0.346389 0.187078
455.0468
458.2409
614.0516
705.2649
896.4284
988.8055
0.0 0.346389 0.249437
500.892
502.0603
581.8599
635.4467
935.3734
985.7322
0.0 0.346389 -0.311796
543.3413
543.3413
564.6041
564.6041
966.6907
966.6907
0.0 0.461852 0.0
434.7477
494.6239
691.5048
825.8743
882.7341
966.6947
0.0 0.461852 0.062359
443.3584
494.1656
686.542
803.0685
898.5806
981.6084
0.0 0.461852 0.124718
467.3053
494.552
671.984
756.5141
930.8315
1010.1678
0.0 0.461852 0.187078
501.8933
502.3288
648.7135
698.8299
967.9936
1031.6528
0.0 0.461852 0.249437
527.1676
541.573
617.9867
634.8008
1001.769
1037.2092
0.0 0.461852 -0.311796
573.513
573.513
581.4682
581.4682
1026.2399
1026.2399
0.0 -0.577315 0.0
449.631
539.0311
702.121
779.3375
909.5798
994.1407
0.0 -0.577315 0.062359
457.9762
535.4203
697.2299
766.9261
921.0749
1005.7656
0.0 -0.577315 0.124718
481.215
527.582
682.8353
733.6758
950.5371
1030.4171
0.0 -0.577315 0.187078
514.8829
524.4389
659.7349
685.3841
987.1129
1050.7407
0.0 -0.577315 0.249437
538.0256
553.707
628.5713
629.1936
1020.9752
1056.4278
0.0 -0.577315 -0.311796
574.8119
574.8119
593.0031
593.0031
1045.5882
1045.5882
0.099994 0.173194 0.0
251.8294
280.4472
518.7397
625.5119
684.7081
1020.6064
0.099994 0.173194 0.062359
269.3679
292.3426
536.3158
625.3251
676.6293
1014.8816
0.099994 0.173194 0.124718
312.4335
324.2683
561.9572
643.6907
652.3312
997.1244
0.099994 0.173194 0.187078
367.0599
368.2201
550.6982
612.5753
707.9663
965.947
0.099994 0.173194 0.249437
416.1155
424.8563
520.4222
560.922
786.4216
920.0764
0.099994 0.173194 -0.311796
454.6771
454.6771
510.158
510.158
859.455
859.455
0.099994 0.288657 0.0
364.2696
397.2811
624.1587
764.8411
813.1121
947.3514
0.099994 0.288657 0.062359
367.3608
408.0163
628.2129
763.5836
803.872
955.5542
0.099994 0.288657 0.124718
381.8252
435.1187
630.3393
736.3689
812.7796
968.1186
0.099994 0.288657 0.187078
412.5594
471.1488
618.3976
684.6158
849.0194
970.4012
0.099994 0.288657 0.249437
458.2681
506.2335
594.0405
628.3105
891.733
957.2847
0.099994 0.288657 -0.311796
505.4506
505.4506
587.9355
587.9355
929.7992
929.7992
0.099994 0.40412 0.0
463.9964
469.5588
688.8619
850.4082
857.8156
928.0132
0.099994 0.40412 0.062359
453.4236
486.6394
687.3936
812.7749
881.028
947.0301
0.099994 0.40412 0.124718
448.5615
513.0112
677.1374
764.8774
907.6259
978.8107
0.099994 0.40412 0.187078
456.7167
544.2133
650.5603
718.4673
940.0679
1000.3664
0.099994 0.40412 0.249437
483.3712
562.1835
622.2282
677.7734
971.2565
1005.3466
0.099994 0.40412 -0.311796
526.727
526.727
641.5931
641.5931
994.5113
994.5113
0.099994 0.519583 0.0
501.7708
538.3316
720.688
781.2996
891.3992
981.8536
0.099994 0.519583 0.062359
498.6078
544.1416
708.8343
775.8979
904.4272
991.4921
0.099994 0.519583 0.124718
491.4266
561.8486
677.8075
760.6078
935.2779
1013.161
0.099994 0.519583 0.187078
488.3194
588.4139
636.2607
735.6107
971.7355
1032.0462
0.099994 0.519583 0.249437
500.2736
578.3833
631.4027
703.3355
1004.64
1037.8217
0.099994 0.519583 -0.311796
532.7154
532.7154
667.1723
667.1723
1027.9883
1027.9883
0.199988 0.346389 0.0
452.912
522.376
674.7918
846.2746
869.5077
894.8367
0.199988 0.346389 0.062359
447.0842
528.8712
684.8125
800.1248
897.4715
910.2934
0.199988 0.346389 0.124718
438.991
546.0698
701.7393
742.8699
907.8414
949.7242
0.199988 0.346389 0.187078
443.457
564.263
690.2225
707.0701
927.7289
973.2801
0.199988 0.346389 0.249437
468.5504
555.5955
666.1129
697.2533
951.3661
979.3649
0.199988 0.346389 -0.311796
511.8953
511.8953
678.6952
678.6952
970.559
970.559
0.199988 0.461852 0.0
537.2317
600.3614
737.4981
784.4407
862.6708
954.9872
0.199988 0.461852 0.062359
523.0079
608.5623
732.3594
773.5757
886.6808
957.5866
0.199988 0.461852 0.124718
498.3522
618.8154
702.7988
780.8547
922.1516
968.4791
0.199988 0.461852 0.187078
482.7056
600.9551
696.0604
783.137
951.0629
984.9601
0.199988 0.461852 0.249437
486.6399
556.4581
719.021
770.4072
974.7423
994.1032
0.199988 0.461852 -0.311796
513.3498
513.3498
747.1149
747.1149
990.303
990.303
0.199988 0.577315 0.0
585.8427
623.9823
733.8759
771.4951
858.6438
973.3421
0.199988 0.577315 0.062359
562.965
643.3855
697.6712
799.1197
872.1065
975.548
0.199988 0.577315 0.124718
529.7779
646.6348
672.5137
820.0862
904.8715
984.1085
0.199988 0.577315 0.187078
505.0378
595.8959
704.6032
817.979
942.4927
996.3123
0.199988 0.577315 0.249437
498.1048
549.2811
738.8301
799.5224
974.3147
1002.032
0.199988 0.577315 -0.311796
513.876
513.876
771.7511
771.7511
994.9272
994.9272
0.299981 0.519583 0.0
613.6788
706.289
710.5515
781.2175
828.5436
961.9197
0.299981 0.519583 0.062359
593.7728
670.6971
727.5719
802.3317
851.9612
957.5479
0.299981 0.519583 0.124718
555.8516
621.7326
746.1518
840.7152
894.7441
947.9443
0.299981 0.519583 0.187078
522.8547
573.9714
772.2359
863.8541
931.455
944.3328
0.299981 0.519583 0.249437
505.6214
534.3035
803.3861
857.5071
953.3333
953.6173
0.299981 0.519583 -0.311796
509.6084
509.6084
833.8878
833.8878
959.9254
959.9254
P	=	11999.9	V	=	63.74048	E	=	-653.9358827
0.0 0.0 0.0
-0.0
0.0
0.0
538.8315
538.8315
1118.2017
0.0 0.0 0.062338
79.8236
79.8236
195.9558
532.9188
532.9188
1104.9906
0.0 0.0 0.124676
157.8434
157.8434
383.9059
514.2229
514.2229
1067.1141
0.0 0.0 0.187013
233.2291
233.2291
481.0547
481.0547
555.9578
1008.0687
0.0 0.0 0.249351
305.6064
305.6064
433.2855
433.2855
705.6218
929.5501
0.0 0.0 -0.311689
373.4399
373.4399
373.4399
373.4399
829.804
829.804
0.0 0.115476 0.0
154.843
162.3319
350.4951
564.7435
608.6481
1095.8889
0.0 0.115476 0.062338
181.7142
193.6041
388.3941
558.9057
602.3348
1085.0016
0.0 0.115476 0.124676
228.9471
257.8166
489.5804
540.8215
582.7055
1053.37
0.0 0.115476 0.187013
288.2087
319.9503
509.5899
547.9943
617.1202
1002.9597
0.0 0.115476 0.249351
350.681
381.9579
465.5828
500.5553
740.2029
934.5576
0.0 0.115476 -0.311689
411.2795
411.2795
443.4305
443.4305
847.1905
847.1905
0.0 0.230951 0.0
295.0875
299.7245
622.1049
636.7205
757.3558
1033.5904
0.0 0.230951 0.062338
311.5992
311.6354
616.4623
654.6038
747.9484
1030.7306
0.0 0.230951 0.124676
343.9089
353.4911
599.6196
693.7327
729.1479
1020.1333
0.0 0.230951 0.187013
388.9851
409.2318
571.9764
665.5188
777.855
997.7433
0.0 0.230951 0.249351
439.4067
472.914
534.5691
607.3363
846.4656
960.8393
0.0 0.230951 -0.311689
489.3622
489.3622
540.7438
540.7438
909.5007
909.5007
0.0 0.346427 0.0
395.8559
413.7719
676.8927
818.6262
904.3794
944.5639
0.0 0.346427 0.062338
405.5413
419.7064
671.5087
821.2583
878.001
973.1055
0.0 0.346427 0.124676
432.3788
437.4799
655.7725
788.8559
885.5298
1004.3694
0.0 0.346427 0.187013
468.9334
470.8817
630.7236
726.2668
924.191
1019.6622
0.0 0.346427 0.249351
514.6474
517.2926
597.67
654.4848
964.347
1016.4213
0.0 0.346427 -0.311689
558.1878
558.1878
581.6205
581.6205
996.7092
996.7092
0.0 0.461902 0.0
448.22
508.6549
711.1748
851.7151
911.0146
998.0294
0.0 0.461902 0.062338
457.0116
508.4155
706.0221
828.0821
927.1265
1013.3145
0.0 0.461902 0.124676
481.4866
509.2843
690.9646
779.849
959.9024
1042.5947
0.0 0.461902 0.187013
516.8734
517.6859
667.0296
720.2646
997.9239
1064.5426
0.0 0.461902 0.249351
543.4802
557.4704
635.5703
654.3164
1032.8191
1070.0011
0.0 0.461902 -0.311689
591.2505
591.2505
598.2527
598.2527
1058.3538
1058.3538
0.0 -0.577378 0.0
464.0694
554.3268
722.27
803.3997
939.4337
1027.1928
0.0 -0.577378 0.062338
472.6031
550.8515
717.2113
790.5201
950.8607
1039.0792
0.0 -0.577378 0.124676
496.3707
543.2584
702.3714
756.092
980.4349
1064.2413
0.0 -0.577378 0.187013
530.7973
540.4325
678.6703
706.2845
1017.6876
1084.8403
0.0 -0.577378 0.249351
554.6821
570.4583
647.4625
647.8676
1052.7059
1090.2526
0.0 -0.577378 -0.311689
592.6174
592.6174
610.5506
610.5506
1078.545
1078.545
0.100005 0.173213 0.0
259.6495
287.5509
533.4152
643.0565
702.8035
1053.5883
0.100005 0.173213 0.062338
277.6716
299.6388
551.2634
643.0855
694.5834
1047.6851
0.100005 0.173213 0.124676
321.6568
332.2388
576.775
663.0382
669.8411
1029.3315
0.100005 0.173213 0.187013
377.3364
377.3759
564.9666
629.275
729.9169
997.036
0.100005 0.173213 0.249351
426.6907
436.4108
534.0493
576.4039
811.1412
949.4998
0.100005 0.173213 -0.311689
466.4361
466.4361
524.2005
524.2005
886.7244
886.7244
0.100005 0.288689 0.0
375.1302
407.6761
641.1014
787.7266
836.8635
977.7747
0.100005 0.288689 0.062338
378.4141
418.6598
645.03
785.9875
828.091
986.0699
0.100005 0.288689 0.124676
393.3829
446.393
646.8829
757.5749
838.1233
998.8064
0.100005 0.288689 0.187013
424.8258
483.3602
634.6789
704.4958
875.5358
1000.9843
0.100005 0.288689 0.249351
471.4761
519.4304
610.2985
646.4411
919.5776
987.3084
0.100005 0.288689 -0.311689
519.2686
519.2686
604.5626
604.5626
958.8676
958.8676
0.100005 0.404165 0.0
477.4796
482.8093
707.9812
876.8858
885.0385
957.3773
0.100005 0.404165 0.062338
466.6517
500.4423
706.3395
837.9508
908.972
976.9037
0.100005 0.404165 0.124676
461.9524
527.445
695.8113
788.1179
936.2514
1009.5928
0.100005 0.404165 0.187013
470.5507
559.3836
669.1216
739.619
969.4493
1031.7261
0.100005 0.404165 0.249351
497.9756
577.957
640.5741
697.2282
1001.4785
1036.7494
0.100005 0.404165 -0.311689
542.3001
542.3001
660.0335
660.0335
1025.4781
1025.4781
0.100005 0.51964 0.0
516.8795
553.9717
741.0894
805.7104
920.285
1014.0063
0.100005 0.51964 0.062338
513.4968
560.1984
729.1183
799.7011
933.3863
1023.9017
0.100005 0.51964 0.124676
506.1325
578.6122
697.5487
783.2245
964.5719
1046.0567
0.100005 0.51964 0.187013
503.1509
605.8491
655.1418
757.0985
1001.766
1065.1999
0.100005 0.51964 0.249351
515.6264
595.6498
650.1847
723.8309
1035.7265
1070.739
0.100005 0.51964 -0.311689
548.9639
548.9639
686.7583
686.7583
1060.1494
1060.1494
0.20001 0.346427 0.0
466.3596
536.0465
693.4912
871.4846
897.3246
923.405
0.20001 0.346427 0.062338
460.5044
542.6276
703.4641
824.6063
926.1987
938.6882
0.20001 0.346427 0.124676
452.3773
560.1379
720.3159
765.7061
936.9876
979.2666
0.20001 0.346427 0.187013
457.014
578.8638
711.4605
725.6912
957.3374
1003.5161
0.20001 0.346427 0.249351
482.6831
570.8626
685.7555
716.0167
981.3595
1009.8018
0.20001 0.346427 -0.311689
526.8756
526.8756
697.6223
697.6223
1000.8567
1000.8567
0.20001 0.461902 0.0
553.4307
617.0901
758.4902
809.4119
889.6024
985.5051
0.20001 0.461902 0.062338
538.7573
625.4718
753.7769
797.1504
914.3967
988.2297
0.20001 0.461902 0.124676
513.4105
635.8946
724.1624
803.0047
950.9727
999.3654
0.20001 0.461902 0.187013
497.4416
618.114
716.6433
804.9482
980.7342
1015.9748
0.20001 0.461902 0.249351
501.6133
572.9708
739.73
792.0049
1004.9865
1025.0717
0.20001 0.461902 -0.311689
528.994
528.994
768.3293
768.3293
1020.9931
1020.9931
0.20001 0.577378 0.0
603.7432
642.1184
757.1141
793.535
886.0099
1004.3096
0.20001 0.577378 0.062338
579.9398
662.2824
718.9531
822.4971
899.6409
1006.6456
0.20001 0.577378 0.124676
545.6971
665.9914
692.2419
843.8466
932.9088
1015.4736
0.20001 0.577378 0.187013
520.3717
613.6798
725.1536
841.5172
971.3141
1027.7731
0.20001 0.577378 0.249351
513.4715
565.9233
760.2536
822.5269
1004.0613
1033.2484
0.20001 0.577378 -0.311689
529.7304
529.7304
794.0251
794.0251
1025.5378
1025.5378
0.300014 0.51964 0.0
632.9057
728.8329
731.2165
804.6414
853.8658
991.5701
0.300014 0.51964 0.062338
612.1372
691.1742
749.3003
826.3348
878.0871
987.0634
0.300014 0.51964 0.124676
572.7518
640.4066
768.1102
865.5092
922.1023
977.1938
0.300014 0.51964 0.187013
538.7767
591.1796
794.6866
888.875
959.7626
973.4591
0.300014 0.51964 0.249351
521.2743
550.6174
826.5774
882.2347
982.4432
982.5025
0.300014 0.51964 -0.311689
525.4518
525.4518
857.918
857.918
989.0332
989.0332
P	=	13000.15	V	=	62.22093	E	=	-653.80682528
0.0 0.0 0.0
-0.0
0.0
0.0
551.709
551.709
1151.6248
0.0 0.0 0.062317
81.4861
81.4861
201.5492
545.7338
545.7338
1138.0617
0.0 0.0 0.124634
161.2792
161.2792
394.7911
526.7773
526.7773
1099.0836
0.0 0.0 0.186951
238.5924
238.5924
492.9908
492.9908
571.6672
1038.1153
0.0 0.0 0.249269
312.9761
312.9761
444.1238
444.1238
725.6734
956.8734
0.0 0.0 -0.311586
382.7076
382.7076
382.7076
382.7076
853.7447
853.7447
0.0 0.115485 0.0
159.5076
166.13
359.8085
578.3191
623.1203
1128.6323
0.0 0.115485 0.062317
185.8758
199.1068
398.9006
572.3806
616.73
1117.4838
0.0 0.115485 0.124634
234.1103
264.3057
503.3354
553.952
596.8214
1084.9831
0.0 0.115485 0.186951
294.8141
327.5151
522.0413
561.4235
634.7799
1032.9524
0.0 0.115485 0.249269
358.9532
391.0279
476.9579
512.8772
761.5216
962.1763
0.0 0.115485 -0.311586
421.2137
421.2137
454.2118
454.2118
871.8552
871.8552
0.0 0.230971 0.0
303.4617
307.0371
637.4022
654.0416
776.2314
1064.4122
0.0 0.230971 0.062317
319.1685
320.5715
631.6021
672.3733
766.7276
1061.4974
0.0 0.230971 0.124634
352.0913
363.5124
614.2943
711.8274
748.6343
1050.5678
0.0 0.230971 0.186951
398.178
420.2105
585.8983
682.3875
799.8528
1027.3057
0.0 0.230971 0.249269
449.8337
485.1211
547.4851
622.8856
870.6859
988.9623
0.0 0.230971 -0.311586
501.0793
501.0793
554.5959
554.5959
935.7945
935.7945
0.0 0.346456 0.0
406.2136
424.8174
694.1059
841.4546
929.4056
972.5259
0.0 0.346456 0.062317
416.0897
431.1848
688.5511
843.7493
903.1327
1001.3524
0.0 0.346456 0.124634
443.4761
449.8417
672.3334
810.4152
910.8868
1033.3677
0.0 0.346456 0.186951
482.2012
482.8109
646.5653
746.2742
950.4491
1048.9773
0.0 0.346456 0.249269
527.5737
531.703
612.6279
672.5493
991.738
1045.4934
0.0 0.346456 -0.311586
572.154
572.154
597.6861
597.6861
1025.0936
1025.0936
0.0 0.461942 0.0
460.8225
521.9183
729.7628
876.4875
937.6775
1027.7448
0.0 0.461942 0.062317
469.8126
521.9155
724.4579
852.039
954.0912
1043.3986
0.0 0.461942 0.124634
494.8334
523.2719
708.9778
802.1941
987.3994
1073.371
0.0 0.461942 0.186951
530.9924
532.2178
684.4281
740.7338
1026.2298
1095.7216
0.0 0.461942 0.249269
558.834
572.4565
652.2347
672.8278
1062.156
1101.023
0.0 0.461942 -0.311586
607.9587
607.9587
614.1041
614.1041
1088.6914
1088.6914
0.0 -0.577427 0.0
477.5324
568.8495
741.3403
826.4216
967.6317
1058.5443
0.0 -0.577427 0.062317
486.273
565.4909
736.1418
813.1111
979.0238
1070.6862
0.0 -0.577427 0.124634
510.5983
558.0895
720.9148
777.5672
1008.7426
1096.3323
0.0 -0.577427 0.186951
545.786
555.4828
696.6546
726.2477
1046.6243
1117.1527
0.0 -0.577427 0.249269
570.2889
586.2654
664.786
666.157
1082.6913
1122.2391
0.0 -0.577427 -0.311586
609.3479
609.3479
627.1454
627.1454
1109.6715
1109.6715
0.100013 0.173228 0.0
267.1768
294.2613
547.1605
659.6417
719.8204
1085.0432
0.100013 0.173228 0.062317
285.7609
306.569
565.2899
659.9168
711.4975
1079.0229
0.100013 0.173228 0.124634
330.6303
339.832
590.7883
681.3972
686.401
1060.1736
0.100013 0.173228 0.186951
386.0137
387.1038
578.5003
645.1031
750.7202
1026.7692
0.100013 0.173228 0.249269
436.5606
447.2087
546.8984
591.0319
834.5197
977.4899
0.100013 0.173228 -0.311586
477.3892
477.3892
537.3933
537.3933
912.5344
912.5344
0.100013 0.288714 0.0
385.461
417.4694
656.9755
809.2693
859.3604
1006.9028
0.100013 0.288714 0.062317
389.0062
428.7302
660.833
807.0849
851.0861
1015.268
0.100013 0.288714 0.124634
404.5218
457.1062
662.5267
777.6891
862.1451
1028.1191
0.100013 0.288714 0.186951
436.5274
494.9173
650.1093
723.4088
900.6539
1030.1054
0.100013 0.288714 0.249269
483.8969
531.8332
625.6462
663.6536
945.9316
1015.7894
0.100013 0.288714 -0.311586
532.2011
532.2011
620.268
620.268
986.3796
986.3796
0.100013 0.404199 0.0
490.2528
495.2548
725.9897
901.851
911.1999
985.2443
0.100013 0.404199 0.062317
479.1843
513.4819
724.2236
861.9699
935.501
1005.296
0.100013 0.404199 0.124634
474.6915
541.1199
713.508
810.3334
963.3746
1038.8553
0.100013 0.404199 0.186951
483.6645
573.7478
686.7247
759.7997
997.2619
1061.4892
0.100013 0.404199 0.249269
511.7197
592.8649
657.9054
715.6859
1030.0563
1066.4832
0.100013 0.404199 -0.311586
556.9457
556.9457
677.4515
677.4515
1054.7553
1054.7553
0.100013 0.519684 0.0
531.0352
568.8705
760.3961
829.167
947.5828
1044.5327
0.100013 0.519684 0.062317
527.5102
575.438
748.3639
822.5384
960.7838
1054.6812
0.100013 0.519684 0.124634
520.0309
594.4628
716.3588
804.8521
992.3165
1077.2981
0.100013 0.519684 0.186951
517.1286
622.3251
673.1161
777.5618
1030.1901
1096.6421
0.100013 0.519684 0.249269
530.031
612.012
667.8996
743.2608
1065.107
1101.8854
0.100013 0.519684 -0.311586
564.2409
564.2409
705.258
705.258
1090.5345
1090.5345
0.200027 0.346456 0.0
479.1375
548.9073
711.0194
895.3091
924.1052
950.5411
0.200027 0.346456 0.062317
473.3025
555.5991
720.9802
847.9473
953.4908
965.8151
0.200027 0.346456 0.124634
465.1861
573.4524
737.8342
787.5295
964.672
1007.4068
0.200027 0.346456 0.186951
469.9055
592.6934
731.7017
743.292
985.4283
1032.2345
0.200027 0.346456 0.249269
495.9844
585.2673
704.3664
733.7372
1009.7674
1038.6343
0.200027 0.346456 -0.311586
540.9418
540.9418
715.4899
715.4899
1029.5268
1029.5268
0.200027 0.461942 0.0
568.9396
632.8452
778.3098
833.5661
915.1132
1014.5326
0.200027 0.461942 0.062317
553.8197
641.4376
774.1147
819.7776
940.7308
1017.3857
0.200027 0.461942 0.124634
527.7747
652.1144
744.5509
824.0572
978.3522
1028.7558
0.200027 0.461942 0.186951
511.3973
634.4816
736.1428
825.6291
1008.863
1045.437
0.200027 0.461942 0.249269
515.6793
588.6124
759.2853
812.4375
1033.6012
1054.405
0.200027 0.461942 -0.311586
543.6895
543.6895
788.3624
788.3624
1050.0132
1050.0132
0.200027 0.577427 0.0
620.9935
659.215
779.5992
814.4506
911.9328
1033.7626
0.200027 0.577427 0.062317
596.2182
680.1598
739.4394
844.807
925.7433
1036.2324
0.200027 0.577427 0.124634
560.8933
684.6072
710.8916
866.4879
959.5012
1045.3146
0.200027 0.577427 0.186951
534.8872
630.6947
744.5583
863.8893
998.6121
1057.6508
0.200027 0.577427 0.249269
527.898
581.6859
780.4767
844.3263
1032.18
1062.8053
0.200027 0.577427 -0.311586
544.6142
544.6142
815.0771
815.0771
1054.463
1054.463
0.30004 0.519684 0.0
651.5197
750.7334
750.7393
826.888
877.9231
1019.7828
0.30004 0.519684 0.062317
629.8757
710.9215
769.9341
849.153
902.9656
1015.1578
0.30004 0.519684 0.124634
588.9872
658.4045
788.8737
889.066
948.1498
1005.0438
0.30004 0.519684 0.186951
553.9237
607.6433
815.8919
912.6087
986.6311
1001.1383
0.30004 0.519684 0.249269
536.0079
566.0471
848.4844
905.6607
1009.8249
1009.9985
0.30004 0.519684 -0.311586
540.3214
540.3214
880.6452
880.6452
1016.5305
1016.5305
P	=	13999.87	V	=	60.82967	E	=	-653.67919946
0.0 0.0 0.0
-0.0
0.0
0.0
563.9646
563.9646
1183.3595
0.0 0.0 0.062296
83.4938
83.4938
206.9134
557.969
557.969
1169.4815
0.0 0.0 0.124591
165.1357
165.1357
405.2475
538.8268
538.8268
1129.5137
0.0 0.0 0.186887
244.1357
244.1357
504.4478
504.4478
586.7815
1066.8003
0.0 0.0 0.249182
320.165
320.165
454.4691
454.4691
744.9715
983.0505
0.0 0.0 -0.311478
391.5475
391.5475
391.5475
391.5475
876.7506
876.7506
0.0 0.115495 0.0
163.918
169.8453
368.6169
591.2054
636.8546
1159.762
0.0 0.115495 0.062296
190.0797
204.4465
408.9411
585.211
630.4364
1148.3883
0.0 0.115495 0.124591
239.4208
270.7861
516.5818
566.5233
610.3405
1115.1184
0.0 0.115495 0.186887
301.4271
335.0307
533.9767
574.3089
651.782
1061.6107
0.0 0.115495 0.249182
366.9643
399.8207
487.8178
524.6561
782.015
988.6249
0.0 0.115495 -0.311478
430.6901
430.6901
464.516
464.516
895.521
895.521
0.0 0.230989 0.0
311.4079
314.1132
651.9171
670.4747
794.1477
1093.8071
0.0 0.230989 0.062296
326.5005
329.2083
646.0084
689.3096
784.6031
1090.8654
0.0 0.230989 0.124591
360.0948
373.3372
628.3357
729.1997
767.2831
1079.6657
0.0 0.230989 0.186887
407.105
430.9806
599.2559
698.6349
820.9407
1055.5871
0.0 0.230989 0.249182
459.8449
496.9574
559.8531
637.8393
893.8661
1015.8474
0.0 0.230989 -0.311478
512.2762
512.2762
567.9191
567.9191
960.9215
960.9215
0.0 0.346484 0.0
416.1828
435.3487
710.5033
863.2401
953.2407
999.2807
0.0 0.346484 0.062296
426.2602
442.1992
704.824
865.3196
927.0829
1028.379
0.0 0.346484 0.124591
454.1912
461.8295
688.2237
831.2134
935.1216
1061.1245
0.0 0.346484 0.186887
494.2986
495.1056
661.8106
765.6164
975.569
1077.0111
0.0 0.346484 0.249182
539.9754
545.6547
627.0084
689.9979
1017.8835
1073.2344
0.0 0.346484 -0.311478
585.5486
585.5486
613.1887
613.1887
1052.1481
1052.1481
0.0 0.461978 0.0
472.9707
534.6185
747.5224
900.2361
963.2596
1056.1316
0.0 0.461978 0.062296
482.1713
534.8529
742.1036
875.0379
979.979
1072.1582
0.0 0.461978 0.124591
507.7423
536.7183
726.2835
823.697
1013.8253
1102.8003
0.0 0.461978 0.186887
544.6317
546.2341
701.1846
760.4622
1053.3851
1125.4971
0.0 0.461978 0.249182
573.6488
586.8928
668.282
690.6704
1090.1934
1130.596
0.0 0.461978 -0.311478
624.0641
624.0641
629.3561
629.3561
1117.6084
1117.6084
0.0 -0.577473 0.0
490.5333
582.7817
759.574
848.5
994.7292
1088.5415
0.0 -0.577473 0.062296
499.4967
579.5265
754.2695
834.7705
1006.126
1100.9307
0.0 -0.577473 0.124591
524.3923
572.3234
738.7287
798.1576
1036.0169
1127.0196
0.0 -0.577473 0.186887
560.3038
569.9742
713.9699
745.4022
1074.439
1147.9963
0.0 -0.577473 0.249182
585.3372
601.5269
681.4708
683.7284
1111.3819
1152.7235
0.0 -0.577473 -0.311478
625.4551
625.4551
643.1325
643.1325
1139.3519
1139.3519
0.100021 0.173242 0.0
274.3129
300.6964
560.2362
675.3108
736.0035
1115.0143
0.100021 0.173242 0.062296
293.5633
313.2813
578.691
675.8754
727.635
1108.9087
0.100021 0.173242 0.124591
339.4712
347.2662
604.2328
698.9501
702.2984
1089.6399
0.100021 0.173242 0.186887
394.4165
396.7232
591.4781
660.3418
770.6847
1055.2098
0.100021 0.173242 0.249182
446.0328
457.6784
559.1913
605.0922
856.9216
1004.266
0.100021 0.173242 -0.311478
487.8509
487.8509
550.0554
550.0554
937.229
937.229
0.100021 0.288736 0.0
395.3008
426.7907
672.1044
829.7679
880.7975
1034.7446
0.100021 0.288736 0.062296
399.191
438.3492
675.932
827.2705
872.9943
1043.2003
0.100021 0.288736 0.124591
415.3844
467.3936
677.5415
797.1066
885.0681
1056.193
0.100021 0.288736 0.186887
447.9592
506.0066
664.9592
741.7222
924.6645
1057.9814
0.100021 0.288736 0.249182
495.9146
543.6862
640.4202
680.3092
971.0869
1042.9946
0.100021 0.288736 -0.311478
544.5844
544.5844
635.4195
635.4195
1012.6194
1012.6194
0.100021 0.404231 0.0
502.4767
507.1482
743.2011
925.8148
936.269
1011.8272
0.100021 0.404231 0.062296
491.2255
525.9537
741.3522
885.0773
960.9003
1032.4377
0.100021 0.404231 0.124591
487.0103
554.2299
730.5342
831.7815
989.361
1066.8662
0.100021 0.404231 0.186887
496.3756
587.5143
703.739
779.3173
1023.8798
1089.9508
0.100021 0.404231 0.249182
524.9988
607.1256
674.7035
733.5103
1057.3306
1094.8532
0.100021 0.404231 -0.311478
571.0315
571.0315
694.2647
694.2647
1082.657
1082.657
0.100021 0.519725 0.0
544.6463
583.1706
778.8871
851.6677
973.8512
1073.728
0.100021 0.519725 0.062296
541.0246
590.045
766.8406
844.4359
987.1706
1084.1274
0.100021 0.519725 0.124591
533.4577
609.6913
734.4968
825.5951
1019.0458
1107.1755
0.100021 0.519725 0.186887
530.6337
638.1895
690.4963
797.228
1057.4991
1126.6621
0.100021 0.519725 0.249182
543.9385
627.7721
685.0207
761.9739
1093.2091
1131.5747
0.100021 0.519725 -0.311478
578.9707
578.9707
723.1018
723.1018
1119.5069
1119.5069
0.200042 0.346484 0.0
491.3697
561.0567
727.8209
918.267
949.7629
976.3617
0.200042 0.346484 0.062296
485.6107
567.8843
737.7891
870.4488
979.4906
991.8612
0.200042 0.346484 0.124591
477.6138
586.1152
754.687
808.6868
991.0887
1034.4275
0.200042 0.346484 0.186887
482.4568
605.8671
751.4039
760.2554
1012.2233
1059.768
0.200042 0.346484 0.249182
508.8776
599.0408
722.4367
750.8199
1036.8294
1066.1892
0.200042 0.346484 -0.311478
554.4896
554.4896
732.7347
732.7347
1056.8499
1056.8499
0.200042 0.461978 0.0
583.8358
647.8759
797.3513
856.7436
939.7558
1042.2637
0.200042 0.461978 0.062296
568.3151
656.6875
793.6465
841.577
966.1177
1045.258
0.200042 0.461978 0.124591
541.6617
667.6587
764.2651
844.315
1004.6792
1056.8753
0.200042 0.461978 0.186887
524.9481
650.259
755.0152
845.5314
1035.8127
1073.6106
0.200042 0.461978 0.249182
529.3565
603.7671
778.1498
832.1067
1060.9249
1082.4077
0.200042 0.461978 -0.311478
557.9623
557.9623
807.6534
807.6534
1077.6889
1077.6889
0.200042 0.577473 0.0
637.578
675.6379
801.1861
834.5634
936.9565
1061.9468
0.200042 0.577473 0.062296
611.9011
697.3224
759.1748
866.2094
950.9463
1064.5526
0.200042 0.577473 0.124591
575.5835
702.6308
728.8226
888.1886
985.147
1073.8648
0.200042 0.577473 0.186887
548.9802
647.2279
763.2442
885.3619
1024.8448
1086.1873
0.200042 0.577473 0.249182
541.9551
597.0381
799.942
865.2728
1059.0886
1090.9984
0.200042 0.577473 -0.311478
559.129
559.129
835.3196
835.3196
1082.0671
1082.0671
0.300064 0.519725 0.0
669.4174
769.4935
771.7843
848.335
901.1697
1046.7767
0.300064 0.519725 0.062296
646.9654
729.9308
789.8114
871.1162
926.9521
1042.0472
0.300064 0.519725 0.124591
604.7053
675.8403
808.8989
911.6883
973.1886
1031.7005
0.300064 0.519725 0.186887
568.6897
623.6914
836.3264
935.3782
1012.4
1027.5919
0.300064 0.519725 0.249182
550.4587
581.1697
869.5273
928.1096
1035.9795
1036.3135
0.300064 0.519725 -0.311478
554.9344
554.9344
902.4227
902.4227
1042.8108
1042.8108
P	=	14999.78	V	=	59.54747	E	=	-653.5528574
0.0 0.0 0.0
-0.0
0.0
0.0
575.656
575.656
1213.8038
0.0 0.0 0.062274
85.2975
85.2975
212.1931
569.6667
569.6667
1199.6545
0.0 0.0 0.124547
168.6308
168.6308
415.4637
550.4006
550.4006
1158.7952
0.0 0.0 0.186821
249.2366
249.2366
515.4854
515.4854
601.4251
1094.4309
0.0 0.0 0.249095
326.9032
326.9032
464.414
464.414
763.5607
1008.2467
0.0 0.0 -0.311369
399.9665
399.9665
399.9665
399.9665
898.874
898.874
0.0 0.115503 0.0
168.1746
173.5167
377.154
603.5714
650.0321
1189.657
0.0 0.115503 0.062274
194.1681
209.6671
418.6337
597.5342
643.5914
1178.0863
0.0 0.115503 0.124547
244.4872
277.0724
529.3616
578.6201
623.3304
1144.1121
0.0 0.115503 0.186821
307.7033
342.2439
545.4751
586.7098
668.1719
1089.1956
0.0 0.115503 0.249095
374.596
408.2564
498.2687
536.0052
801.7299
1014.0655
0.0 0.115503 -0.311369
439.7721
439.7721
474.4331
474.4331
918.2695
918.2695
0.0 0.231007 0.0
319.0734
321.1038
665.9307
686.4056
811.402
1122.1062
0.0 0.231007 0.062274
333.7313
337.5782
659.9097
705.6804
801.8174
1119.1319
0.0 0.231007 0.124547
367.9518
382.9021
641.8687
745.8715
785.2916
1107.6529
0.0 0.231007 0.186821
415.816
441.4715
612.1174
714.2831
841.2226
1082.7639
0.0 0.231007 0.249095
469.5555
508.474
571.7659
652.2952
916.1361
1041.6646
0.0 0.231007 -0.311369
523.0872
523.0872
580.8494
580.8494
985.049
985.049
0.0 0.34651 0.0
425.9951
445.5068
726.2943
884.2623
976.2195
1025.0983
0.0 0.34651 0.062274
436.2878
452.8482
720.5006
886.1066
950.2347
1054.4063
0.0 0.34651 0.124547
464.7653
473.468
703.5393
851.2856
958.5252
1087.7951
0.0 0.34651 0.186821
505.5798
507.6612
676.5029
784.3261
999.7498
1103.9069
0.0 0.34651 0.249095
552.0484
559.2203
640.8691
706.9023
1042.9865
1099.827
0.0 0.34651 -0.311369
598.4959
598.4959
628.2331
628.2331
1078.0866
1078.0866
0.0 0.462013 0.0
484.8592
546.8848
764.5238
923.1682
987.8139
1083.4963
0.0 0.462013 0.062274
494.2976
547.3741
759.0381
897.2724
1004.8781
1099.8709
0.0 0.462013 0.124547
520.4357
549.7847
742.9718
844.5472
1039.2878
1131.1282
0.0 0.462013 0.186821
557.9758
559.867
717.3799
779.6136
1079.5124
1154.0975
0.0 0.462013 0.249095
588.0116
600.8913
683.7704
707.9602
1117.0796
1158.9287
0.0 0.462013 -0.311369
639.6454
639.6454
644.0695
644.0695
1145.285
1145.285
0.0 -0.577517 0.0
503.2207
596.2591
776.9803
869.8054
1020.6872
1117.4471
0.0 -0.577517 0.062274
512.437
593.1302
771.637
855.7124
1032.1511
1130.0812
0.0 -0.577517 0.124547
537.9204
586.1752
755.9156
818.1388
1062.2932
1156.5834
0.0 -0.577517 0.186821
574.4681
584.0823
730.7329
764.0067
1101.2115
1177.6373
0.0 -0.577517 0.249095
599.9144
616.2883
697.587
700.7412
1138.888
1181.9188
0.0 -0.577517 -0.311369
641.0096
641.0096
658.5368
658.5368
1167.7377
1167.7377
0.100029 0.173255 0.0
281.2004
307.0183
572.925
690.4262
751.5989
1143.8478
0.100029 0.173255 0.062274
301.1457
319.8516
591.6446
691.273
743.1738
1137.6612
0.100029 0.173255 0.124547
348.1051
354.4918
617.1781
715.8666
717.5891
1117.9852
0.100029 0.173255 0.186821
402.5398
406.1034
603.9713
675.0125
789.8921
1082.5542
0.100029 0.173255 0.249095
455.1655
467.8558
571.0353
618.6734
878.454
1029.9931
0.100029 0.173255 -0.311369
497.9434
497.9434
562.3165
562.3165
960.9523
960.9523
0.100029 0.288758 0.0
404.8024
435.9307
686.7289
849.5547
901.5045
1061.598
0.100029 0.288758 0.062274
409.0651
447.7752
690.5025
846.7265
894.1813
1070.1138
0.100029 0.288758 0.124547
425.9666
477.4652
691.9928
815.8247
907.2104
1083.1868
0.100029 0.288758 0.186821
459.1136
516.8258
679.234
759.4022
947.8011
1084.74
0.100029 0.288758 0.249095
507.6186
555.1982
654.6281
696.424
995.2744
1069.0948
0.100029 0.288758 -0.311369
556.594
556.594
650.0619
650.0619
1037.8102
1037.8102
0.100029 0.404262 0.0
514.296
518.7851
759.7316
948.8702
960.4928
1037.4918
0.100029 0.404262 0.062274
502.9386
538.1236
757.8192
907.3935
985.4182
1058.5996
0.100029 0.404262 0.124547
499.0249
567.0461
746.9288
852.5535
1014.4453
1093.8122
0.100029 0.404262 0.186821
508.7671
600.9399
720.1307
798.221
1049.5208
1117.2804
0.100029 0.404262 0.249095
537.9012
620.9785
690.8761
750.7037
1083.525
1122.0532
0.100029 0.404262 -0.311369
584.6887
584.6887
710.4413
710.4413
1109.4033
1109.4033
0.100029 0.519765 0.0
557.9307
597.0246
796.5755
873.413
999.051
1101.8845
0.100029 0.519765 0.062274
554.2188
604.2422
784.5783
865.6185
1012.5333
1112.5299
0.100029 0.519765 0.124547
546.5811
624.5382
752.0347
845.6843
1044.8003
1135.9765
0.100029 0.519765 0.186821
543.8074
653.6075
707.3548
816.2457
1083.7838
1155.5298
0.100029 0.519765 0.249095
557.4224
643.052
701.5136
779.9909
1120.1617
1160.0313
0.100029 0.519765 -0.311369
593.2102
593.2102
740.2347
740.2347
1147.2375
1147.2375
0.200058 0.34651 0.0
503.2154
572.8935
744.0151
940.3523
974.5676
1001.3515
0.200058 0.34651 0.062274
497.5576
579.8661
753.973
892.1852
1004.6621
1016.9487
0.200058 0.34651 0.124547
489.7157
598.4742
770.8838
829.1767
1016.6588
1060.3867
0.200058 0.34651 0.186821
494.6768
618.6972
770.4707
776.5326
1038.1065
1086.1795
0.200058 0.34651 0.249095
521.3969
612.4075
739.857
767.1924
1062.8846
1092.6101
0.200058 0.34651 -0.311369
567.6254
567.6254
749.2813
749.2813
1083.0812
1083.0812
0.200058 0.462013 0.0
598.2992
662.4897
815.6633
879.1931
963.446
1069.0552
0.200058 0.462013 0.062274
582.4208
671.5241
812.4467
862.7173
990.5437
1072.1992
0.200058 0.462013 0.124547
555.2109
682.7934
783.379
863.8726
1030.0411
1084.0366
0.200058 0.462013 0.186821
538.129
665.6054
773.2774
864.6835
1061.768
1100.7396
0.200058 0.462013 0.249095
542.567
618.4464
796.2742
850.9658
1087.1739
1109.2873
0.200058 0.462013 -0.311369
571.7203
571.7203
826.1213
826.1213
1104.2278
1104.2278
0.200058 0.577517 0.0
653.6995
691.6049
822.1059
853.8868
961.022
1089.1344
0.200058 0.577517 0.062274
627.1821
714.0123
778.3076
886.8324
975.2149
1091.892
0.200058 0.577517 0.124547
589.9396
720.1835
746.2436
909.115
1009.875
1101.4308
0.200058 0.577517 0.186821
562.701
663.3203
781.3097
906.0508
1050.0989
1113.672
0.200058 0.577517 0.249095
555.511
611.8749
818.6371
885.3824
1084.906
1118.0521
0.200058 0.577517 -0.311369
573.0719
573.0719
854.7064
854.7064
1108.5073
1108.5073
0.300086 0.519765 0.0
686.8256
787.6305
792.2212
869.0725
923.5801
1072.7898
0.300086 0.519765 0.062274
663.6319
748.4066
809.0752
892.3417
950.0821
1067.994
0.300086 0.519765 0.124547
620.0759
692.8676
828.2832
933.5214
997.3222
1057.4718
0.300086 0.519765 0.186821
583.0521
639.3187
856.0357
957.3016
1037.1828
1053.1278
0.300086 0.519765 0.249095
564.3507
595.7431
889.717
949.6542
1061.0611
1061.6006
0.300086 0.519765 -0.311369
568.9111
568.9111
923.2742
923.2742
1067.9932
1067.9932

weight
   0.0000000   0.0000000   0.0000000   0.0020000   
   0.0000000   0.0000000   0.1000000   0.0040000   
   0.0000000   0.0000000   0.2000000   0.0040000   
   0.0000000   0.0000000   0.3000000   0.0040000   
   0.0000000   0.0000000   0.4000000   0.0040000   
   0.0000000   0.0000000  -0.5000000   0.0020000   
   0.0000000   0.1000000   0.0000000   0.0120000   
   0.0000000   0.1000000   0.1000000   0.0240000   
   0.0000000   0.1000000   0.2000000   0.0240000   
   0.0000000   0.1000000   0.3000000   0.0240000   
   0.0000000   0.1000000   0.4000000   0.0240000   
   0.0000000   0.1000000  -0.5000000   0.0120000   
   0.0000000   0.2000000   0.0000000   0.0120000   
   0.0000000   0.2000000   0.1000000   0.0240000   
   0.0000000   0.2000000   0.2000000   0.0240000   
   0.0000000   0.2000000   0.3000000   0.0240000   
   0.0000000   0.2000000   0.4000000   0.0240000   
   0.0000000   0.2000000  -0.5000000   0.0120000   
   0.0000000   0.3000000   0.0000000   0.0120000   
   0.0000000   0.3000000   0.1000000   0.0240000   
   0.0000000   0.3000000   0.2000000   0.0240000   
   0.0000000   0.3000000   0.3000000   0.0240000   
   0.0000000   0.3000000   0.4000000   0.0240000   
   0.0000000   0.3000000  -0.5000000   0.0120000   
   0.0000000   0.4000000   0.0000000   0.0120000   
   0.0000000   0.4000000   0.1000000   0.0240000   
   0.0000000   0.4000000   0.2000000   0.0240000   
   0.0000000   0.4000000   0.3000000   0.0240000   
   0.0000000   0.4000000   0.4000000   0.0240000   
   0.0000000   0.4000000  -0.5000000   0.0120000   
   0.0000000  -0.5000000   0.0000000   0.0060000   
   0.0000000  -0.5000000   0.1000000   0.0120000   
   0.0000000  -0.5000000   0.2000000   0.0120000   
   0.0000000  -0.5000000   0.3000000   0.0120000   
   0.0000000  -0.5000000   0.4000000   0.0120000   
   0.0000000  -0.5000000  -0.5000000   0.0060000   
   0.1000000   0.1000000   0.0000000   0.0120000   
   0.1000000   0.1000000   0.1000000   0.0240000   
   0.1000000   0.1000000   0.2000000   0.0240000   
   0.1000000   0.1000000   0.3000000   0.0240000   
   0.1000000   0.1000000   0.4000000   0.0240000   
   0.1000000   0.1000000  -0.5000000   0.0120000   
   0.1000000   0.2000000   0.0000000   0.0240000   
   0.1000000   0.2000000   0.1000000   0.0480000   
   0.1000000   0.2000000   0.2000000   0.0480000   
   0.1000000   0.2000000   0.3000000   0.0480000   
   0.1000000   0.2000000   0.4000000   0.0480000   
   0.1000000   0.2000000  -0.5000000   0.0240000   
   0.1000000   0.3000000   0.0000000   0.0240000   
   0.1000000   0.3000000   0.1000000   0.0480000   
   0.1000000   0.3000000   0.2000000   0.0480000   
   0.1000000   0.3000000   0.3000000   0.0480000   
   0.1000000   0.3000000   0.4000000   0.0480000   
   0.1000000   0.3000000  -0.5000000   0.0240000   
   0.1000000   0.4000000   0.0000000   0.0240000   
   0.1000000   0.4000000   0.1000000   0.0480000   
   0.1000000   0.4000000   0.2000000   0.0480000   
   0.1000000   0.4000000   0.3000000   0.0480000   
   0.1000000   0.4000000   0.4000000   0.0480000   
   0.1000000   0.4000000  -0.5000000   0.0240000   
   0.2000000   0.2000000   0.0000000   0.0120000   
   0.2000000   0.2000000   0.1000000   0.0240000   
   0.2000000   0.2000000   0.2000000   0.0240000   
   0.2000000   0.2000000   0.3000000   0.0240000   
   0.2000000   0.2000000   0.4000000   0.0240000   
   0.2000000   0.2000000  -0.5000000   0.0120000   
   0.2000000   0.3000000   0.0000000   0.0240000   
   0.2000000   0.3000000   0.1000000   0.0480000   
   0.2000000   0.3000000   0.2000000   0.0480000   
   0.2000000   0.3000000   0.3000000   0.0480000   
   0.2000000   0.3000000   0.4000000   0.0480000   
   0.2000000   0.3000000  -0.5000000   0.0240000   
   0.2000000   0.4000000   0.0000000   0.0120000   
   0.2000000   0.4000000   0.1000000   0.0240000   
   0.2000000   0.4000000   0.2000000   0.0240000   
   0.2000000   0.4000000   0.3000000   0.0240000   
   0.2000000   0.4000000   0.4000000   0.0240000   
   0.2000000   0.4000000  -0.5000000   0.0120000   
   0.3000000   0.3000000   0.0000000   0.0120000   
   0.3000000   0.3000000   0.1000000   0.0240000   
   0.3000000   0.3000000   0.2000000   0.0240000   
   0.3000000   0.3000000   0.3000000   0.0240000   
   0.3000000   0.3000000   0.4000000   0.0240000   
   0.3000000   0.3000000  -0.5000000   0.0120000   