Number of volumes (nv), q-vectors (nq), normal mode (np), formula units(nm)
23 84 6 1

P	=	-0.06	V	=	151.48407	E	=	-655.60500823
0.0 0.0 0.0
-0.0
0.0
0.0
150.5421
150.5421
278.7003
0.0 0.0 0.062081
22.274
22.274
51.8534
148.5287
148.5287
276.8946
0.0 0.0 0.124161
44.2879
44.2879
101.0166
142.5825
142.5825
270.8896
0.0 0.0 0.186242
65.6469
65.6469
132.9541
132.9541
145.4581
259.38
0.0 0.0 0.248323
85.7958
85.7958
119.9909
119.9909
184.0084
241.2447
0.0 0.0 -0.310403
104.1064
104.1064
104.1064
104.1064
216.0675
216.0675
0.0 0.115777 0.0
41.8741
47.0851
90.128
158.7016
171.2506
275.1442
0.0 0.115777 0.062081
52.56
55.9603
98.5897
156.9557
169.4254
273.3841
0.0 0.115777 0.124161
65.802
77.0423
123.8967
151.6484
164.0269
267.6855
0.0 0.115777 0.186242
82.189
95.3165
142.734
155.2282
157.457
257.0934
0.0 0.115777 0.248323
99.2305
112.6766
130.4979
143.4249
190.0883
240.7383
0.0 0.115777 -0.310403
115.6696
115.6696
128.9965
128.9965
218.2867
218.2867
0.0 0.231555 0.0
82.422
85.6767
164.1905
175.6429
211.1271
265.0594
0.0 0.231555 0.062081
88.0056
89.4416
168.5698
174.3538
208.9815
263.896
0.0 0.231555 0.124161
99.0735
102.4195
170.1738
180.5156
202.6404
260.3002
0.0 0.231555 0.186242
111.6053
121.3968
162.6182
191.8998
197.4944
253.9437
0.0 0.231555 0.248323
125.1792
141.6433
151.85
178.1326
215.0404
244.3557
0.0 0.231555 -0.310403
138.9206
138.9206
161.019
161.019
231.2492
231.2492
0.0 0.347332 0.0
110.5119
119.4008
189.914
213.3874
242.631
250.2096
0.0 0.347332 0.062081
113.9052
120.2341
188.8903
216.6457
234.9954
254.8398
0.0 0.347332 0.124161
122.6709
124.3843
185.4807
220.3713
226.4425
259.1336
0.0 0.347332 0.186242
134.118
134.1827
179.1277
204.9938
236.3678
260.6866
0.0 0.347332 0.248323
146.385
149.4213
169.8726
186.9038
246.5103
259.1881
0.0 0.347332 -0.310403
158.5822
158.5822
167.8097
167.8097
254.4151
254.4151
0.0 0.463109 0.0
122.0374
148.9779
197.292
234.0297
238.7504
257.8857
0.0 0.463109 0.062081
125.3041
146.9152
196.3267
227.805
242.0576
261.1851
0.0 0.463109 0.124161
133.9278
143.5063
193.241
214.5685
249.5004
266.4323
0.0 0.463109 0.186242
143.8635
145.4407
187.6932
198.2743
257.8971
270.0949
0.0 0.463109 0.248323
150.9213
157.7065
179.6153
180.7766
264.9728
271.2505
0.0 0.463109 -0.310403
164.097
164.097
169.391
169.391
269.56
269.56
0.0 -0.578887 0.0
124.9251
162.1851
199.2641
225.2996
246.2551
261.5218
0.0 -0.578887 0.062081
128.151
158.8684
198.2921
220.3988
249.4124
264.0388
0.0 -0.578887 0.124161
136.7766
152.2343
195.2779
208.521
256.6355
268.838
0.0 -0.578887 0.186242
148.3798
148.4569
190.0169
193.1633
264.3374
272.8003
0.0 -0.578887 0.248323
151.4082
160.9072
176.6742
182.3919
270.3835
274.6485
0.0 -0.578887 -0.310403
161.6821
161.6821
172.5315
172.5315
273.8922
273.8922
0.100266 0.173666 0.0
71.8876
84.1377
139.648
177.0036
197.6967
268.3217
0.100266 0.173666 0.062081
78.5035
87.7354
144.928
175.942
195.7697
266.8483
0.100266 0.173666 0.124161
94.1694
97.0318
158.0198
173.8388
190.058
262.2634
0.100266 0.173666 0.186242
109.2517
112.7731
160.9449
180.7779
184.6153
254.1387
0.100266 0.173666 0.248323
122.3441
130.2499
153.0746
168.4061
205.6933
241.99
0.100266 0.173666 -0.310403
133.9283
133.9283
154.7386
154.7386
225.632
225.632
0.100266 0.289443 0.0
107.4029
117.7885
179.4576
205.6276
228.5035
255.8113
0.100266 0.289443 0.062081
108.2477
121.2474
181.7752
206.5143
224.8451
256.3529
0.100266 0.289443 0.124161
113.2076
129.5778
184.3929
210.3511
216.0917
256.7534
0.100266 0.289443 0.186242
124.0721
140.0465
181.5198
201.0416
222.0533
255.3647
0.100266 0.289443 0.248323
138.8482
150.3834
174.5129
186.0668
233.7183
251.2435
0.100266 0.289443 -0.310403
151.9075
151.9075
173.512
173.512
243.9445
243.9445
0.100266 0.405221 0.0
135.9945
139.9528
199.8534
229.6781
239.898
250.1068
0.100266 0.405221 0.062081
134.4462
142.5853
199.7926
229.3261
234.8695
255.33
0.100266 0.405221 0.124161
132.2321
149.8696
197.3622
217.9267
240.0249
261.1333
0.100266 0.405221 0.186242
134.2157
159.3671
189.4471
205.36
248.5202
264.3611
0.100266 0.405221 0.248323
142.5272
166.0171
179.3201
194.6496
256.3845
264.6805
0.100266 0.405221 -0.310403
155.6318
155.6318
184.6325
184.6325
261.9842
261.9842
0.100266 0.520998 0.0
142.739
162.872
206.8296
225.5829
242.5069
258.9763
0.100266 0.520998 0.062081
144.0738
160.8457
204.8209
221.6647
245.8147
261.5134
0.100266 0.520998 0.124161
144.0049
161.2355
197.2584
214.3607
253.189
266.2869
0.100266 0.520998 0.186242
141.6386
168.75
184.1078
207.1944
260.9917
270.0927
0.100266 0.520998 0.248323
144.1353
167.4091
180.0062
199.2133
267.1128
271.7028
0.100266 0.520998 -0.310403
153.4833
153.4833
189.9371
189.9371
270.7399
270.7399
0.200532 0.347332 0.0
136.948
155.0409
196.374
232.666
238.8075
242.0256
0.200532 0.347332 0.062081
134.3161
157.3222
199.9048
227.852
233.2606
249.9305
0.200532 0.347332 0.124161
130.6402
163.0545
205.5464
213.0429
236.0102
256.0529
0.200532 0.347332 0.186242
131.7834
169.0341
197.8816
206.4735
242.1627
259.0099
0.200532 0.347332 0.248323
139.7491
166.5204
190.918
202.2592
249.6066
258.8193
0.200532 0.347332 -0.310403
152.9499
152.9499
195.7045
195.7045
255.5651
255.5651
0.200532 0.463109 0.0
163.9784
174.3248
215.2038
226.0397
238.9818
250.59
0.200532 0.463109 0.062081
158.4447
177.4107
214.093
222.0229
242.5506
253.2971
0.200532 0.463109 0.124161
148.7888
182.5219
202.0502
223.8551
247.628
258.7523
0.200532 0.463109 0.186242
141.8053
178.2128
197.094
222.8607
253.9376
262.8803
0.200532 0.463109 0.248323
141.4393
162.7248
203.6968
218.1639
259.6406
264.4089
0.200532 0.463109 -0.310403
148.9935
148.9935
211.3534
211.3534
263.274
263.274
0.200532 0.578887 0.0
178.0482
179.0085
215.9082
224.3308
238.2617
255.4491
0.200532 0.578887 0.062081
169.8016
184.6394
206.7232
228.6611
242.0942
257.141
0.200532 0.578887 0.124161
158.1592
191.4392
191.5731
230.39
250.1474
261.1101
0.200532 0.578887 0.186242
147.8232
174.5128
199.7206
228.0309
257.8513
264.8275
0.200532 0.578887 0.248323
143.2261
158.536
208.0958
222.8883
263.292
266.6563
0.200532 0.578887 -0.310403
147.0172
147.0172
215.9963
215.9963
266.1775
266.1775
0.300798 0.520998 0.0
186.6101
200.4501
209.6807
227.6923
238.2091
250.7603
0.300798 0.520998 0.062081
180.0064
199.2647
205.2838
232.4935
243.4468
250.5872
0.300798 0.520998 0.124161
166.6379
185.4403
209.0857
239.4447
251.1327
251.724
0.300798 0.520998 0.186242
153.5066
168.6874
215.8019
239.8589
255.1075
257.8393
0.300798 0.520998 0.248323
145.1446
153.8645
222.8691
235.604
259.2883
260.9427
0.300798 0.520998 -0.310403
145.0582
145.0582
229.6131
229.6131
261.3231
261.3231
P	=	500.07	V	=	127.09869	E	=	-655.57010571
0.0 0.0 0.0
-0.0
-0.0
0.0
202.8518
202.8518
396.5406
0.0 0.0 0.062159
31.1677
31.1677
73.0162
200.2471
200.2471
393.5583
0.0 0.0 0.124318
61.1157
61.1157
142.408
192.3601
192.3601
384.0825
0.0 0.0 0.186477
89.2094
89.2094
179.2025
179.2025
205.2915
366.8872
0.0 0.0 0.248636
115.4009
115.4009
161.2768
161.2768
259.8436
340.7871
0.0 0.0 -0.310796
139.6287
139.6287
139.6371
139.6371
305.077
305.1881
0.0 0.115609 0.0
58.0435
61.8695
127.0231
213.5461
232.8839
390.9349
0.0 0.115609 0.062159
69.7239
76.5666
139.7636
211.2085
230.3989
388.1762
0.0 0.115609 0.124318
88.3165
104.6282
176.1727
204.0891
222.8755
379.4971
0.0 0.115609 0.186477
110.6846
128.7632
192.0702
210.3651
223.5716
363.8813
0.0 0.115609 0.248636
133.548
151.5089
175.566
193.8086
269.3969
340.3534
0.0 0.115609 -0.310796
155.5439
155.6672
173.4375
174.0074
308.5335
308.9586
0.0 0.231219 0.0
113.2942
113.6042
231.9123
236.6251
291.9563
375.1293
0.0 0.231219 0.062159
118.7137
120.7185
234.769
238.367
288.7124
373.6176
0.0 0.231219 0.124318
132.0931
139.6834
228.9747
255.5529
279.2597
368.8579
0.0 0.231219 0.186477
149.8354
164.0307
218.9371
262.4832
281.0406
359.9318
0.0 0.231219 0.248636
168.9907
190.2072
204.8818
242.9471
306.1635
346.033
0.0 0.231219 -0.310796
187.7807
187.8126
216.5945
219.192
327.2249
329.0446
0.0 0.346828 0.0
148.4302
163.0398
257.8855
302.6374
341.4562
351.9949
0.0 0.346828 0.062159
152.8223
164.0437
256.293
307.0356
329.6105
359.9308
0.0 0.346828 0.124318
164.6083
169.3202
251.2984
306.1116
322.607
367.2578
0.0 0.346828 0.186477
180.721
182.0689
242.6367
283.3337
336.84
370.1967
0.0 0.346828 0.248636
198.3125
202.5454
230.3894
256.9651
351.3498
368.3699
0.0 0.346828 -0.310796
215.1893
215.3858
228.1723
229.6565
361.6373
362.6477
0.0 0.462437 0.0
165.9845
203.2267
270.7299
326.8734
340.2456
368.3296
0.0 0.462437 0.062159
170.0803
200.1793
269.161
317.9932
345.3244
372.8288
0.0 0.462437 0.124318
181.2723
195.2377
264.3766
298.8238
356.4535
380.4714
0.0 0.462437 0.186477
196.1016
196.9577
256.3075
274.8988
368.8213
386.2808
0.0 0.462437 0.248636
206.8551
214.2432
244.9636
249.1385
379.0625
388.5728
0.0 0.462437 -0.310796
224.5623
226.3407
230.6189
230.7873
385.5535
386.5076
0.0 -0.578047 0.0
170.8579
221.594
274.7906
313.3503
351.6489
375.8974
0.0 -0.578047 0.062159
174.8397
217.0045
273.1843
306.443
356.2409
379.3194
0.0 -0.578047 0.124318
185.8395
207.9291
268.4015
289.4228
366.9135
386.1482
0.0 -0.578047 0.186477
201.4514
203.073
260.4814
267.4362
378.5753
391.9842
0.0 -0.578047 0.248636
207.9828
218.7664
244.0954
249.4053
387.905
394.7784
0.0 -0.578047 -0.310796
221.1138
224.6021
235.2783
235.2819
392.5488
394.4187
0.100121 0.173414 0.0
98.9974
111.7056
194.8665
241.4057
271.6066
380.2272
0.100121 0.173414 0.062159
107.4365
116.7096
202.2268
240.4837
268.7617
378.1509
0.100121 0.173414 0.124318
127.4773
129.7998
217.3028
241.9473
260.3006
371.6597
0.100121 0.173414 0.186477
146.8656
151.7813
216.9105
246.5694
262.6849
360.1266
0.100121 0.173414 0.248636
165.0163
174.9329
206.8848
228.5334
292.2481
342.9543
0.100121 0.173414 -0.310796
179.9824
180.9633
209.0275
209.5857
319.8973
320.1546
0.100121 0.289023 0.0
146.7127
157.8784
244.5554
289.6652
318.8432
360.6839
0.100121 0.289023 0.062159
147.231
162.8022
247.022
291.612
313.3097
361.9926
0.100121 0.289023 0.124318
152.8667
174.4512
249.4841
294.0852
304.3415
363.555
0.100121 0.289023 0.186477
166.7598
188.9884
245.8637
276.5595
316.625
362.2516
0.100121 0.289023 0.248636
186.8031
202.9651
237.049
255.0636
333.1078
356.6688
0.100121 0.289023 -0.310796
203.8317
205.9937
235.816
237.674
346.4772
347.4403
0.100121 0.404633 0.0
184.4059
190.4845
272.9686
326.8748
335.8918
354.7805
0.100121 0.404633 0.062159
181.7648
194.035
272.7465
321.2824
334.1634
361.9705
0.100121 0.404633 0.124318
178.0078
203.754
269.4496
302.9538
342.8859
370.9136
0.100121 0.404633 0.186477
180.5401
216.7689
259.1703
283.7718
355.019
376.4271
0.100121 0.404633 0.248636
192.4937
225.4196
245.9426
268.0931
366.177
377.6835
0.100121 0.404633 -0.310796
210.2879
211.2752
253.5499
254.1606
374.0657
374.237
0.100121 0.520242 0.0
195.2245
222.0488
285.2013
313.6443
345.4576
371.2773
0.100121 0.520242 0.062159
196.165
219.5597
282.0726
308.309
350.3179
374.59
0.100121 0.520242 0.124318
194.2678
220.9134
271.0744
297.8355
361.2578
381.2195
0.100121 0.520242 0.186477
190.9532
231.4158
252.508
287.1313
373.0263
386.9973
0.100121 0.520242 0.248636
195.4121
228.2628
247.9117
275.5741
382.3233
389.8457
0.100121 0.520242 -0.310796
207.7178
209.7521
261.9724
262.593
387.4713
388.9798
0.200241 0.346828 0.0
186.0324
210.1379
268.6858
332.0685
335.3225
339.1201
0.200241 0.346828 0.062159
182.0291
213.062
273.225
318.0369
333.2175
352.1929
0.200241 0.346828 0.124318
176.0499
220.677
280.5205
295.8159
337.7438
362.4336
0.200241 0.346828 0.186477
176.7842
228.9224
273.5479
282.3291
346.5121
367.9977
0.200241 0.346828 0.248636
187.5738
225.4506
263.1557
277.6324
356.7495
368.7736
0.200241 0.346828 -0.310796
205.4394
207.1072
268.8466
269.7806
364.7105
364.9201
0.200241 0.462437 0.0
222.783
239.0864
296.7492
314.1191
338.6504
357.8143
0.200241 0.462437 0.062159
214.5672
243.1634
295.3747
308.0708
344.7944
360.6142
0.200241 0.462437 0.124318
200.1905
249.4089
279.3766
309.7422
353.3739
367.6214
0.200241 0.462437 0.186477
190.1654
242.4395
272.9313
308.9976
362.5652
374.2209
0.200241 0.462437 0.248636
190.2938
220.534
282.4535
303.147
370.8013
377.5291
0.200241 0.462437 -0.310796
200.8038
201.5619
293.6464
293.7749
375.9538
376.5481
0.200241 0.578047 0.0
242.5866
246.7777
298.3794
311.0904
336.9243
365.8117
0.200241 0.578047 0.062159
230.6397
254.6804
284.5221
318.0917
342.3192
367.7253
0.200241 0.578047 0.124318
213.3307
261.8795
264.7608
321.5179
354.136
372.6674
0.200241 0.578047 0.186477
198.6271
237.4489
276.7828
318.7446
366.1885
377.9808
0.200241 0.578047 0.248636
192.7214
214.9166
289.6205
311.7023
375.2655
381.018
0.200241 0.578047 -0.310796
197.8436
199.3995
301.545
301.8051
379.6746
380.8753
0.300362 0.520242 0.0
254.4469
278.8217
288.7009
316.8539
333.4316
358.582
0.300362 0.520242 0.062159
244.7552
273.8576
285.1563
323.7819
341.1081
357.9892
0.300362 0.520242 0.124318
225.1279
252.5844
291.1619
334.6306
353.8692
357.7077
0.300362 0.520242 0.186477
206.3554
228.472
301.2076
337.3183
361.9713
364.1372
0.300362 0.520242 0.248636
195.0766
207.7505
312.4637
332.0154
368.2003
370.1043
0.300362 0.520242 -0.310796
195.2718
195.6266
323.1156
323.2146
371.3417
371.4308
P	=	999.86	V	=	115.03086	E	=	-655.51024038
0.0 0.0 0.0
-0.0
0.0
0.0
238.1987
238.1987
472.0602
0.0 0.0 0.062221
36.5037
36.5037
85.8093
235.1027
235.1027
468.3677
0.0 0.0 0.124443
71.695
71.695
167.7524
225.7841
225.7841
456.7722
0.0 0.0 0.186664
104.8232
104.8232
210.3559
210.3559
242.539
436.0135
0.0 0.0 0.248886
135.702
135.702
189.4307
189.4307
307.7858
404.7366
0.0 0.0 -0.311107
164.1439
164.1439
164.1465
164.1465
361.9985
362.105
0.0 0.115564 0.0
67.82
72.3195
151.0494
250.5358
273.7129
465.1597
0.0 0.115564 0.062221
81.4997
88.6793
166.4697
247.7459
270.668
461.7743
0.0 0.115564 0.124443
103.3933
121.1966
209.5941
239.2889
261.6469
451.2184
0.0 0.115564 0.186664
129.8687
150.0008
225.167
246.7672
265.537
432.4775
0.0 0.115564 0.248886
156.8972
177.1601
205.9127
227.2472
319.8859
404.4681
0.0 0.115564 -0.311107
182.6498
182.7485
203.1355
203.8555
366.6545
366.9756
0.0 0.231129 0.0
132.2611
133.1386
275.8263
277.428
344.2357
445.5942
0.0 0.231129 0.062221
139.1259
140.6731
275.1393
283.6167
340.1627
443.8704
0.0 0.231129 0.124443
154.7525
162.4448
268.1962
303.9742
328.7793
438.3575
0.0 0.231129 0.186664
175.5867
191.0475
256.4406
307.8491
334.7747
428.061
0.0 0.231129 0.248886
198.1153
222.1474
240.166
284.2577
364.3919
412.0226
0.0 0.231129 -0.311107
220.1153
220.3519
253.4143
255.8081
390.0937
391.3976
0.0 0.346693 0.0
174.4784
190.1448
302.7814
359.9626
404.6484
416.8108
0.0 0.346693 0.062221
179.5988
191.4256
300.7781
364.8492
390.119
427.0231
0.0 0.346693 0.124443
193.208
197.7284
294.7498
360.5056
384.3583
436.4587
0.0 0.346693 0.186664
211.8846
212.8675
284.5589
332.9481
401.2515
440.5607
0.0 0.346693 0.248886
232.3818
237.1399
270.3208
301.3728
418.4068
438.8419
0.0 0.346693 -0.311107
252.331
252.64
267.4754
268.8932
431.1019
431.7038
0.0 0.462258 0.0
195.5766
236.9065
318.6741
385.6408
404.7495
438.6392
0.0 0.462258 0.062221
200.3067
233.6738
316.7207
375.0317
410.8818
443.9964
0.0 0.462258 0.124443
213.1562
228.4147
310.8968
352.1014
424.3312
453.3264
0.0 0.462258 0.186664
229.8278
231.2115
301.2143
323.6948
439.3478
460.4569
0.0 0.462258 0.248886
242.6534
251.2478
287.7462
293.2978
451.8822
463.2028
0.0 0.462258 -0.311107
264.4452
265.5844
270.6203
270.8362
459.834
460.6349
0.0 -0.577822 0.0
201.5024
258.3315
323.8694
369.0101
418.3293
448.6121
0.0 -0.577822 0.062221
206.0751
253.1904
321.8985
360.9704
423.8578
452.6238
0.0 -0.577822 0.124443
218.7189
243.1386
316.0361
341.008
436.7979
460.744
0.0 -0.577822 0.186664
236.7181
238.1398
306.3744
315.1052
451.0198
467.7577
0.0 -0.577822 0.248886
244.5239
256.8138
287.5191
293.0018
462.4948
471.0431
0.0 -0.577822 -0.311107
261.1455
263.5862
276.1794
276.2012
468.6799
470.0765
0.100082 0.173347 0.0
115.6002
130.6252
230.9607
284.323
319.7094
451.9139
0.100082 0.173347 0.062221
125.0497
136.4498
239.5203
283.4938
316.1951
449.4315
0.100082 0.173347 0.124443
148.0568
151.736
255.6756
287.105
305.8225
441.7273
0.100082 0.173347 0.186664
171.9639
176.4856
254.0461
289.1878
313.0393
428.1429
0.100082 0.173347 0.248886
193.4395
204.0082
242.3473
267.587
348.1082
407.9601
0.100082 0.173347 -0.311107
211.0449
211.7864
244.5206
245.118
380.8698
381.0204
0.100082 0.288911 0.0
171.1503
185.0559
287.2444
344.3321
376.8194
427.59
0.100082 0.288911 0.062221
171.7081
190.7489
289.9092
346.689
370.0706
429.4725
0.100082 0.288911 0.124443
178.1962
204.2139
292.4685
346.6199
362.1807
431.9169
0.100082 0.288911 0.186664
194.3966
221.2682
288.2278
324.6422
377.463
430.9499
0.100082 0.288911 0.248886
217.8951
237.7104
278.142
298.9081
396.851
424.8084
0.100082 0.288911 -0.311107
238.5992
240.2825
276.8738
278.5406
413.0108
413.6844
0.100082 0.404475 0.0
216.7821
222.0542
320.6342
388.8725
396.6948
421.64
0.100082 0.404475 0.062221
212.6388
227.4065
320.3198
379.2672
397.8326
430.0397
0.100082 0.404475 0.124443
207.9819
239.124
316.3603
356.9451
408.6278
441.1167
0.100082 0.404475 0.186664
210.9271
254.2976
304.2251
334.1743
423.0648
448.1333
0.100082 0.404475 0.248886
224.8809
263.9219
289.2482
315.554
436.3521
449.8873
0.100082 0.404475 -0.311107
246.1916
246.8779
298.3129
299.0396
445.6832
445.9156
0.100082 0.52004 0.0
229.9195
258.8545
335.833
369.1966
410.651
442.7936
0.100082 0.52004 0.062221
230.534
256.6845
331.8586
363.2535
416.4979
446.6606
0.100082 0.52004 0.124443
227.3045
259.6731
318.3197
351.5047
429.7578
454.5516
0.100082 0.52004 0.186664
223.3247
272.2382
296.3974
338.9727
444.1285
461.4515
0.100082 0.52004 0.248886
228.6622
267.6914
291.9774
325.0502
455.6149
464.7006
0.100082 0.52004 -0.311107
243.9189
245.3557
308.7757
309.2781
462.1902
463.3077
0.200163 0.346693 0.0
216.8589
246.6453
315.494
396.364
396.5299
400.6066
0.200163 0.346693 0.062221
212.1492
249.9978
320.8288
375.0501
397.8051
417.2587
0.200163 0.346693 0.124443
205.145
258.7203
329.4588
348.2313
403.2558
430.3337
0.200163 0.346693 0.186664
206.0743
267.9704
321.8778
331.8066
413.4863
437.6414
0.200163 0.346693 0.248886
218.8217
263.3306
309.883
326.5263
425.3343
439.0205
0.200163 0.346693 -0.311107
240.1549
241.4517
316.4692
317.3943
434.5125
434.7435
0.200163 0.462258 0.0
259.6993
281.4487
348.9077
369.4973
401.6041
426.6464
0.200163 0.462258 0.062221
250.221
286.1331
347.0566
362.788
409.5596
429.5045
0.200163 0.462258 0.124443
233.535
292.9635
328.5876
365.2318
420.7112
437.3081
0.200163 0.462258 0.186664
221.9463
283.669
322.0957
364.7474
431.7938
445.1846
0.200163 0.462258 0.248886
222.1585
258.0388
333.2937
357.9028
441.5579
449.1835
0.200163 0.462258 -0.311107
234.903
235.4575
346.5438
346.7326
447.6319
448.0554
0.200163 0.577822 0.0
282.9315
290.8842
350.1626
366.2939
399.3404
436.3366
0.200163 0.577822 0.062221
269.2139
300.1222
333.5589
375.255
405.8562
438.4067
0.200163 0.577822 0.124443
248.9027
306.7293
312.4996
380.2454
420.2451
443.9159
0.200163 0.577822 0.186664
231.9265
278.0091
326.8817
377.2984
434.9843
450.0031
0.200163 0.577822 0.248886
225.2743
251.5479
342.1379
368.7791
446.1251
453.4076
0.200163 0.577822 -0.311107
231.7519
232.9619
356.4286
356.7571
451.9078
452.7326
0.300245 0.52004 0.0
296.9745
329.6833
338.1753
373.1029
393.3906
427.9146
0.300245 0.52004 0.062221
285.6192
321.0396
336.8961
381.6568
402.8139
427.1273
0.300245 0.52004 0.124443
262.7413
295.4511
344.7371
395.4654
418.7048
426.2845
0.300245 0.52004 0.186664
240.9804
267.2158
356.7149
399.8876
430.2003
431.5421
0.300245 0.52004 0.248886
227.955
242.9625
370.1107
393.7929
437.061
438.9774
0.300245 0.52004 -0.311107
228.3184
228.6789
382.9211
383.0928
440.622
440.7065
P	=	1500.21	V	=	107.01827	E	=	-655.44290256
0.0 0.0 0.0
-0.0
0.0
0.0
266.6547
266.6547
531.9924
0.0 0.0 0.06227
41.0862
41.0862
96.2255
263.2155
263.2155
527.7395
0.0 0.0 0.124539
80.6756
80.6756
188.3094
252.8643
252.8643
514.4788
0.0 0.0 0.186809
117.8932
117.8932
235.7222
235.7222
272.5929
490.9398
0.0 0.0 0.249079
152.4991
152.4991
212.451
212.451
346.2584
455.6479
0.0 0.0 -0.311349
184.2726
184.2726
184.2834
184.2834
407.4717
407.561
0.0 0.115539 0.0
75.8216
80.7757
170.0945
280.2952
306.3295
524.0399
0.0 0.115539 0.06227
91.14
98.4294
187.7096
277.1521
302.9105
520.1711
0.0 0.115539 0.124539
115.7468
134.3999
236.3832
267.6912
292.7319
508.1805
0.0 0.115539 0.186809
145.5293
166.9293
251.9826
275.8892
299.2033
487.0299
0.0 0.115539 0.249079
175.8982
197.6578
230.6075
253.8387
360.2899
455.5338
0.0 0.115539 -0.311349
204.7382
204.7842
226.9028
227.477
413.0128
413.2999
0.0 0.231077 0.0
147.7436
148.7232
310.2296
310.3889
385.5654
501.4062
0.0 0.231077 0.06227
155.3386
156.8515
307.6389
319.2189
380.9205
499.5193
0.0 0.231077 0.124539
172.7579
180.6409
299.7972
342.1058
368.0688
493.501
0.0 0.231077 0.186809
196.1765
212.3449
286.6314
343.5411
377.3751
482.1775
0.0 0.231077 0.249079
221.5675
247.1654
268.4881
316.5035
410.6466
464.3923
0.0 0.231077 -0.311349
246.2411
246.3749
282.2806
284.2615
439.8804
440.9732
0.0 0.346616 0.0
194.9037
212.1161
338.8392
404.5853
454.2485
468.0168
0.0 0.346616 0.06227
200.5799
213.5844
336.6304
409.8569
437.803
479.9355
0.0 0.346616 0.124539
215.8062
220.674
329.8518
403.1953
432.8365
491.0712
0.0 0.346616 0.186809
236.719
237.492
318.291
371.897
451.9121
496.0465
0.0 0.346616 0.249079
259.6817
264.4471
302.1203
336.1635
471.2587
494.2593
0.0 0.346616 -0.311349
282.0642
282.1632
298.3492
299.6383
485.6261
486.185
0.0 0.462155 0.0
218.4416
263.9347
357.1196
431.9843
454.4937
493.4931
0.0 0.462155 0.06227
223.8602
260.5287
355.0421
419.933
461.7113
499.6121
0.0 0.462155 0.124539
238.4567
255.1664
348.5917
394.0565
477.2747
510.4248
0.0 0.462155 0.186809
257.0395
258.5777
337.4702
362.1669
494.54
518.6561
0.0 0.462155 0.249079
271.2837
280.7368
321.8105
328.1535
508.9521
521.7053
0.0 0.462155 -0.311349
296.0246
296.7335
302.3649
302.4875
518.1162
518.6708
0.0 -0.577693 0.0
225.0392
287.6448
363.1904
412.9086
469.5836
505.1715
0.0 -0.577693 0.06227
230.4181
282.1325
361.1147
404.0129
476.0225
509.7763
0.0 -0.577693 0.124539
244.9044
271.4608
354.678
381.8456
491.081
519.133
0.0 -0.577693 0.186809
264.8816
266.4065
343.5546
352.9456
507.5727
527.179
0.0 -0.577693 0.249079
273.8137
286.9139
322.0431
327.8803
520.8374
530.8319
0.0 -0.577693 -0.311349
292.9808
294.7122
308.4036
308.642
528.2833
529.3263
0.100059 0.173308 0.0
129.1731
145.7492
259.4635
318.7353
357.8391
508.7234
0.100059 0.173308 0.06227
139.4107
152.1882
268.9954
317.9871
353.8033
505.9678
0.100059 0.173308 0.124539
164.6272
169.1976
286.2024
323.178
341.9018
497.4059
0.100059 0.173308 0.186809
192.0083
196.0695
283.8567
322.8641
353.0295
482.2705
0.100059 0.173308 0.249079
216.2587
226.9521
270.7087
298.2627
392.5047
459.7047
0.100059 0.173308 -0.311349
235.8897
236.7113
272.4222
272.844
429.3946
429.4155
0.100059 0.288847 0.0
191.0359
206.4908
321.0774
387.4593
422.4695
480.4907
0.100059 0.288847 0.06227
191.6199
212.7068
324.0289
389.9957
414.9006
482.8253
0.100059 0.288847 0.124539
198.6654
227.6338
326.822
387.7832
407.9463
486.0198
0.100059 0.288847 0.186809
216.4417
246.8035
322.0618
362.4116
425.4283
485.322
0.100059 0.288847 0.249079
242.4726
265.3432
310.7677
333.2209
447.1955
478.6433
0.100059 0.288847 -0.311349
266.0831
267.5486
309.2974
310.5391
465.5039
466.0453
0.100059 0.404385 0.0
241.9702
247.5111
358.5668
436.9708
444.6489
474.0216
0.100059 0.404385 0.06227
237.1696
253.7606
358.3149
424.664
447.6015
483.4448
0.100059 0.404385 0.124539
232.0922
267.0209
353.9224
399.3547
460.0382
496.2586
0.100059 0.404385 0.186809
235.3711
284.0311
340.0934
373.9233
476.3956
504.4775
0.100059 0.404385 0.249079
250.7028
294.4894
323.4949
353.023
491.4733
506.576
0.100059 0.404385 -0.311349
274.5883
275.1178
333.88
334.3389
502.0397
502.1202
0.100059 0.519924 0.0
256.674
288.2602
376.1517
412.9863
460.8441
498.5279
0.100059 0.519924 0.06227
257.2788
286.2306
371.5959
406.5859
467.644
502.8863
0.100059 0.519924 0.124539
253.5717
290.3854
356.0438
394.0218
483.006
511.8912
0.100059 0.519924 0.186809
249.3167
304.6232
331.3071
380.2102
499.6392
519.7807
0.100059 0.519924 0.249079
255.3136
299.045
326.8627
364.2994
512.9816
523.4045
0.100059 0.519924 -0.311349
272.7586
273.7514
345.8762
346.1384
520.7613
521.5881
0.200119 0.346616 0.0
241.7784
275.1684
352.2166
444.3407
446.9708
449.0963
0.200119 0.346616 0.06227
236.5031
278.8505
358.2788
419.796
448.5925
468.3614
0.200119 0.346616 0.124539
228.6628
288.4652
368.1631
389.3814
454.6682
483.7107
0.200119 0.346616 0.186809
229.6417
298.6365
359.7708
371.0518
466.0269
492.4637
0.200119 0.346616 0.249079
243.7447
293.2487
346.5322
365.2671
479.225
494.3542
0.200119 0.346616 -0.311349
267.6643
268.6339
354.1864
354.8204
489.5318
489.6315
0.200119 0.462155 0.0
289.2552
314.2798
389.727
413.1105
450.3834
480.6152
0.200119 0.462155 0.06227
278.6429
319.4976
387.6215
405.7014
459.8405
483.515
0.200119 0.462155 0.124539
260.1294
326.867
367.1024
408.8962
473.1316
491.8562
0.200119 0.462155 0.186809
247.437
316.0147
360.5053
408.7579
485.8628
500.7895
0.200119 0.462155 0.249079
247.8147
287.7195
373.2571
401.1397
497.0411
505.4814
0.200119 0.462155 -0.311349
262.1946
262.6159
388.3356
388.4405
503.9804
504.2872
0.200119 0.577693 0.0
315.0367
324.953
390.981
409.6468
447.4377
491.4682
0.200119 0.577693 0.06227
299.6399
335.4482
372.1113
420.2199
454.8908
493.6232
0.200119 0.577693 0.124539
276.9727
341.9229
349.6155
426.5177
471.4569
499.5365
0.200119 0.577693 0.186809
258.4077
309.9487
365.9837
423.5271
488.5862
506.3296
0.200119 0.577693 0.249079
251.4701
280.73
383.3712
413.8825
501.6562
510.2307
0.200119 0.577693 -0.311349
259.0716
260.0149
399.8161
400.0159
508.6404
509.2606
0.300178 0.519924 0.0
330.7423
369.0454
377.1923
416.5885
439.8202
482.4224
0.300178 0.519924 0.06227
317.8971
357.8286
377.1021
426.5003
450.6565
481.3943
0.300178 0.519924 0.124539
292.2877
328.842
386.1162
442.8216
469.061
479.9377
0.300178 0.519924 0.186809
268.3748
297.5375
399.7576
448.934
483.5514
484.1546
0.300178 0.519924 0.249079
254.4495
271.0449
415.1879
442.4303
491.166
493.0961
0.300178 0.519924 -0.311349
255.1194
255.4711
430.0385
430.1486
495.2423
495.2953
P	=	2000.12	V	=	101.07556	E	=	-655.3726217
0.0 0.0 0.0
-0.0
-0.0
0.0
290.5712
290.5712
583.4784
0.0 0.0 0.062296
44.8549
44.8549
105.1772
286.827
286.827
578.6436
0.0 0.0 0.124592
87.9913
87.9913
205.8399
275.5384
275.5384
563.6856
0.0 0.0 0.186888
128.4478
128.4478
256.8089
256.8089
297.9893
537.4292
0.0 0.0 0.249184
166.0417
166.0417
231.372
231.372
378.5507
498.4461
0.0 0.0 -0.31148
200.6231
200.6231
200.6308
200.6308
445.5775
445.6365
0.0 0.115521 0.0
83.0316
87.8918
186.1503
305.2877
333.6552
574.5687
0.0 0.115521 0.062296
99.2781
107.0918
205.6281
301.8493
329.9109
570.2005
0.0 0.115521 0.124592
126.1162
145.8047
259.0168
291.5218
318.7176
556.7459
0.0 0.115521 0.186888
158.4599
181.146
274.3687
300.1409
327.6352
533.2446
0.0 0.115521 0.249184
191.4018
214.5813
251.0358
275.8903
394.3227
498.5467
0.0 0.115521 -0.31148
222.7703
222.8741
246.4695
247.01
451.965
452.2496
0.0 0.231042 0.0
161.2935
161.9341
337.7467
339.5747
420.1414
549.1542
0.0 0.231042 0.062296
169.1534
170.9819
334.8932
349.241
415.0069
547.1092
0.0 0.231042 0.124592
188.0781
196.4879
326.2968
374.1007
400.966
540.5366
0.0 0.231042 0.186888
213.4678
230.6245
311.8989
373.3477
413.2497
528.1426
0.0 0.231042 0.249184
240.9921
268.2231
292.1027
343.5809
449.7155
508.6589
0.0 0.231042 -0.31148
267.7882
268.0333
306.3277
308.333
481.8017
482.9508
0.0 0.346564 0.0
212.4004
230.7892
369.0828
442.2933
495.917
511.5737
0.0 0.346564 0.062296
218.4857
232.4165
366.6195
447.7335
478.0553
524.8383
0.0 0.346564 0.124592
234.8785
240.2333
359.1005
439.019
473.7074
537.396
0.0 0.346564 0.186888
257.5055
258.5078
346.3737
404.6324
494.5989
543.0837
0.0 0.346564 0.249184
282.4504
287.6821
328.6785
365.5301
515.902
541.2102
0.0 0.346564 -0.31148
306.7737
306.9602
324.4847
325.6852
531.7212
532.3585
0.0 0.462085 0.0
238.2293
286.585
389.3815
471.0277
496.5591
539.8128
0.0 0.462085 0.062296
243.9479
283.0851
387.0199
457.7999
504.6028
546.5254
0.0 0.462085 0.124592
259.5213
277.7116
379.7541
429.4744
521.8205
558.5432
0.0 0.462085 0.186888
280.0942
281.2473
367.4086
394.6275
541.0272
567.8012
0.0 0.462085 0.249184
295.7062
305.3843
350.2071
357.513
557.1742
571.2893
0.0 0.462085 -0.31148
322.4256
323.4751
328.996
329.0937
567.4725
567.9101
0.0 -0.577606 0.0
245.4993
312.2058
396.1966
449.6141
512.9516
553.0279
0.0 -0.577606 0.062296
251.1601
306.4661
393.8075
440.0643
520.016
558.0253
0.0 -0.577606 0.124592
266.5559
295.3825
386.51
416.1291
536.6829
568.3179
0.0 -0.577606 0.186888
288.0851
290.322
374.1343
384.7785
555.1546
577.3157
0.0 -0.577606 0.249184
298.6
312.0865
351.1793
356.9102
570.1641
581.4664
0.0 -0.577606 -0.31148
319.3789
321.5737
335.592
335.8554
578.7546
579.6488
0.100044 0.173282 0.0
141.1505
158.4543
283.5359
347.6394
389.7264
557.3788
0.100044 0.173282 0.062296
151.9859
165.4904
293.8827
346.9993
385.243
554.3137
0.100044 0.173282 0.124592
178.9078
184.0389
311.9012
353.6089
372.0311
544.8325
0.100044 0.173282 0.186888
208.8385
212.7654
308.8245
350.9498
386.7764
528.1689
0.100044 0.173282 0.249184
235.1743
246.2345
294.3258
323.8456
429.9508
503.4301
0.100044 0.173282 -0.31148
256.437
257.2862
295.6403
296.1215
470.2337
470.335
0.100044 0.288803 0.0
208.08
224.5982
349.5411
423.8052
460.737
525.6246
0.100044 0.288803 0.062296
208.6379
231.352
352.6776
426.4052
452.5425
528.3239
0.100044 0.288803 0.124592
216.1676
247.5393
355.5957
422.1647
446.5367
532.0713
0.100044 0.288803 0.186888
235.2914
268.3194
350.3444
394.0388
465.8501
531.4848
0.100044 0.288803 0.249184
263.3727
288.3708
337.9773
362.1537
489.708
524.2305
0.100044 0.288803 -0.31148
288.9956
290.5325
336.3094
337.6166
509.8169
510.4011
0.100044 0.404324 0.0
263.4382
268.8889
390.3714
477.5552
485.2857
518.1782
0.100044 0.404324 0.062296
257.9003
276.0209
390.0649
462.9557
489.7031
528.5045
0.100044 0.404324 0.124592
252.4581
290.4708
385.1604
435.1181
503.3847
542.8279
0.100044 0.404324 0.186888
256.1454
308.9059
369.955
407.3743
521.3476
552.1291
0.100044 0.404324 0.249184
272.7888
320.0863
352.1057
384.5235
538.0159
554.5957
0.100044 0.404324 -0.31148
298.5286
299.144
363.5791
364.0619
549.7105
549.724
0.100044 0.519846 0.0
279.625
312.8586
409.9154
449.7402
503.2674
545.642
0.100044 0.519846 0.062296
279.9844
311.0303
404.704
443.0555
510.7729
550.3395
0.100044 0.519846 0.124592
275.6946
316.0514
387.3696
429.7563
527.79
560.2045
0.100044 0.519846 0.186888
271.3259
331.5857
360.4294
414.693
546.377
568.9969
0.100044 0.519846 0.249184
278.048
325.3802
355.9988
397.1575
561.421
573.0906
0.100044 0.519846 -0.31148
296.8882
298.1279
376.8604
377.1917
570.2745
571.0018
0.200089 0.346564 0.0
262.7196
299.1998
383.11
484.3916
489.7464
490.3045
0.200089 0.346564 0.062296
257.0626
303.1426
389.7084
457.423
491.4811
511.6028
0.200089 0.346564 0.124592
248.6683
313.4554
400.5413
423.9432
498.0101
528.9083
0.200089 0.346564 0.186888
249.772
324.3287
391.6362
403.8302
510.3044
538.892
0.200089 0.346564 0.249184
265.0016
318.3939
377.3143
397.6232
524.7059
541.1958
0.200089 0.346564 -0.31148
290.7829
291.8776
385.6163
386.2561
536.0033
536.0882
0.200089 0.462085 0.0
313.9136
342.0431
423.9294
449.9429
491.3603
526.2276
0.200089 0.462085 0.062296
302.5001
347.612
421.6103
441.8701
502.1443
529.1299
0.200089 0.462085 0.124592
282.6194
355.3268
399.5568
445.4689
517.2855
537.874
0.200089 0.462085 0.186888
269.1306
343.2322
392.7866
445.555
531.4164
547.7146
0.200089 0.462085 0.249184
269.737
312.7367
406.7327
437.3081
543.7958
553.0317
0.200089 0.462085 -0.31148
285.2555
285.7481
423.2733
423.3881
551.4913
551.7761
0.200089 0.577606 0.0
341.8843
353.8312
425.2479
445.8199
487.9988
538.0324
0.200089 0.577606 0.062296
325.2777
365.2387
404.4257
457.847
496.1829
540.2259
0.200089 0.577606 0.124592
300.7923
371.4788
380.8173
465.2732
514.5141
546.4378
0.200089 0.577606 0.186888
280.9607
336.8632
398.7763
462.2284
533.6591
553.8225
0.200089 0.577606 0.249184
273.7396
305.3942
417.9209
451.639
548.3994
558.1447
0.200089 0.577606 -0.31148
282.0493
283.1073
436.1005
436.3007
556.3739
556.9717
0.300133 0.519846 0.0
358.9672
402.342
409.9992
452.9924
478.6886
528.4139
0.300133 0.519846 0.062296
345.0091
388.7966
411.1574
464.0153
490.7561
527.1838
0.300133 0.519846 0.124592
317.3241
357.0764
421.1711
482.4306
511.3535
525.197
0.300133 0.519846 0.186888
291.6912
323.2652
436.1303
490.0095
528.3697
528.4495
0.300133 0.519846 0.249184
276.9419
294.8508
453.1289
483.2084
536.5756
538.5383
0.300133 0.519846 -0.31148
277.8185
278.1378
469.5635
469.6564
541.0438
541.1092
P	=	2499.86	V	=	96.37534	E	=	-655.30099969
0.0 0.0 0.0
-0.0
-0.0
0.0
311.7543
311.7543
628.4998
0.0 0.0 0.062317
47.6928
47.6928
112.8702
307.6695
307.6695
623.2033
0.0 0.0 0.124633
94.0781
94.0781
221.0378
295.5197
295.5198
606.8922
0.0 0.0 0.18695
138.1342
138.1342
275.69
275.69
320.2384
578.4307
0.0 0.0 0.249266
179.1346
179.1346
248.9479
248.9479
407.0752
536.3438
0.0 0.0 -0.311583
216.3818
216.3818
216.3818
216.3818
479.3747
479.3747
0.0 0.115503 0.0
88.8604
94.1349
200.3137
327.3807
357.7042
618.7183
0.0 0.115503 0.062317
106.1939
114.0978
221.3795
323.6699
353.5825
613.9568
0.0 0.115503 0.124633
134.9973
155.1758
278.8821
312.5755
341.4383
599.3367
0.0 0.115503 0.18695
170.0911
193.5903
294.3408
321.495
352.5714
573.946
0.0 0.115503 0.249266
205.8829
230.1674
269.6453
295.6027
424.2154
536.6233
0.0 0.115503 -0.311583
239.6601
239.6601
264.6093
264.6093
486.5677
486.5677
0.0 0.231006 0.0
172.6222
173.5686
361.9927
365.2852
450.3212
590.7967
0.0 0.231006 0.062317
181.2188
182.8156
358.9305
375.6668
444.7213
588.6404
0.0 0.231006 0.124633
201.4504
209.7692
349.6796
402.202
429.7129
581.639
0.0 0.231006 0.18695
228.7534
246.5229
334.2415
399.2319
444.6659
568.5117
0.0 0.231006 0.249266
258.401
287.3724
313.0642
366.7217
483.6338
547.9303
0.0 0.231006 -0.311583
287.2347
287.2347
328.4195
328.4195
519.3078
519.3078
0.0 0.346509 0.0
227.9398
246.929
395.6554
475.3231
532.2105
549.535
0.0 0.346509 0.062317
234.3223
248.8319
392.9402
480.8954
513.2114
563.9752
0.0 0.346509 0.124633
251.6386
257.4271
384.733
470.3249
509.5845
577.8626
0.0 0.346509 0.18695
275.7606
277.1188
370.9955
433.1266
532.0099
584.3539
0.0 0.346509 0.249266
302.5133
308.3827
352.0244
390.8107
554.849
582.5964
0.0 0.346509 -0.311583
328.6887
328.6887
347.8243
347.8243
572.4904
572.4904
0.0 0.462012 0.0
255.9844
306.4756
417.6556
505.189
533.1446
580.2101
0.0 0.462012 0.062317
261.859
303.1331
414.953
490.8933
542.0578
587.5495
0.0 0.462012 0.124633
278.0579
298.1282
406.8692
460.4307
560.8848
600.8545
0.0 0.462012 0.18695
300.8859
301.113
393.5062
423.1282
581.8372
611.0725
0.0 0.462012 0.249266
317.1409
327.0623
375.1582
383.5019
599.52
614.7937
0.0 0.462012 -0.311583
346.2872
346.2872
352.5364
352.5364
610.9186
610.9186
0.0 -0.577516 0.0
263.9472
333.79
425.0906
481.8908
550.5579
594.7937
0.0 -0.577516 0.062317
269.6718
328.016
422.3396
471.8154
558.3368
600.2708
0.0 -0.577516 0.124633
285.5703
316.9028
414.159
446.4335
576.7072
611.5956
0.0 -0.577516 0.18695
308.4172
311.9414
400.7372
412.9433
597.0364
621.4852
0.0 -0.577516 0.249266
320.7531
334.3109
376.8665
382.3927
613.5078
625.9754
0.0 -0.577516 -0.311583
343.9845
343.9845
359.7861
359.7861
623.4277
623.4277
0.100029 0.173255 0.0
151.0646
169.5216
304.8446
373.0484
417.651
599.8299
0.100029 0.173255 0.062317
162.5246
177.051
315.8099
372.4645
412.7023
596.5452
0.100029 0.173255 0.124633
191.0838
196.9519
334.5381
380.209
398.247
586.379
0.100029 0.173255 0.18695
223.6976
227.2141
330.9092
375.4478
416.3455
568.5028
0.100029 0.173255 0.249266
252.1151
263.2762
315.2862
346.3539
462.9183
541.9488
0.100029 0.173255 -0.311583
275.3534
275.3534
316.4306
316.4306
506.332
506.332
0.100029 0.288758 0.0
222.6495
240.4306
374.5777
455.7311
494.1279
564.9225
0.100029 0.288758 0.062317
223.3842
247.5371
377.8915
458.2968
485.4264
567.969
0.100029 0.288758 0.124633
231.5082
264.7563
380.9212
452.1454
480.3835
572.2586
0.100029 0.288758 0.18695
251.8088
287.1804
375.1941
421.5507
501.2533
571.9303
0.100029 0.288758 0.249266
281.5922
308.9625
362.0481
386.9296
526.8378
564.4107
0.100029 0.288758 -0.311583
309.9208
309.9208
360.589
360.589
549.0429
549.0429
0.100029 0.404261 0.0
282.4053
287.5684
418.1966
512.9933
520.6763
556.741
0.100029 0.404261 0.062317
276.2436
295.5966
417.7981
496.3373
526.5497
567.838
0.100029 0.404261 0.124633
270.6675
311.047
412.3898
466.3809
541.3793
583.589
0.100029 0.404261 0.18695
274.621
330.7311
396.1059
436.611
560.7617
593.926
0.100029 0.404261 0.249266
292.0811
342.6249
377.4822
411.8777
578.8301
596.7158
0.100029 0.404261 -0.311583
319.9219
319.9219
389.8261
389.8261
591.4869
591.4869
0.100029 0.519764 0.0
300.0765
334.4417
439.4013
481.9028
540.1296
586.7997
0.100029 0.519764 0.062317
300.075
333.04
433.5594
474.9436
548.3767
591.8857
0.100029 0.519764 0.124633
295.35
338.9193
414.6744
460.9353
567.0256
602.6875
0.100029 0.519764 0.18695
291.0053
355.3994
386.0448
444.7835
587.4047
612.317
0.100029 0.519764 0.249266
298.1178
348.7292
381.7824
425.9213
603.9774
616.6881
0.100029 0.519764 -0.311583
319.0208
319.0208
404.2973
404.2973
614.0307
614.0307
0.200057 0.346509 0.0
280.9561
320.1236
410.1887
519.2491
526.0932
527.3552
0.200057 0.346509 0.062317
275.0322
324.3215
417.2609
490.2291
529.1577
549.1689
0.200057 0.346509 0.124633
266.2585
335.2671
428.922
454.2191
536.0416
568.2223
0.200057 0.346509 0.18695
267.5144
346.7025
419.6924
432.4912
549.1748
579.3852
0.200057 0.346509 0.249266
283.726
340.3492
404.334
425.8231
564.66
582.1866
0.200057 0.346509 -0.311583
311.6972
311.6972
413.3434
413.3434
576.8199
576.8199
0.200057 0.462012 0.0
335.4959
366.3855
453.7424
481.9207
527.0233
566.2348
0.200057 0.462012 0.062317
323.4979
372.2541
451.2268
473.354
538.9686
569.1152
0.200057 0.462012 0.124633
302.6323
380.1851
428.0139
477.3111
555.8395
578.1663
0.200057 0.462012 0.18695
288.4885
367.1242
421.1845
477.6085
571.3149
588.7953
0.200057 0.462012 0.249266
289.1236
335.0524
436.1112
468.8412
584.8712
594.6421
0.200057 0.462012 -0.311583
306.0749
306.0749
453.8805
453.8805
593.3037
593.3037
0.200057 0.577516 0.0
365.3121
379.2706
455.0769
477.2617
523.3146
578.8113
0.200057 0.577516 0.062317
347.7227
391.439
432.6512
490.5177
532.1694
581.0485
0.200057 0.577516 0.124633
321.823
397.4742
408.1914
498.9226
552.1302
587.5478
0.200057 0.577516 0.18695
301.0924
360.7301
427.5158
495.9018
573.1238
595.4743
0.200057 0.577516 0.249266
293.7462
327.4244
448.2218
484.6207
589.3733
600.1675
0.200057 0.577516 -0.311583
303.2585
303.2585
468.0027
468.0027
598.5201
598.5201
0.300086 0.519764 0.0
383.538
431.5258
438.4396
484.6823
512.4675
568.7722
0.300086 0.519764 0.062317
368.7077
415.7397
441.0032
496.6513
525.5528
567.3324
0.300086 0.519764 0.124633
339.4111
381.8583
451.8408
516.8893
548.0807
564.8437
0.300086 0.519764 0.18695
312.4983
346.1198
467.9312
525.7994
566.8921
567.7942
0.300086 0.519764 0.249266
297.2099
316.2378
486.3399
518.8486
576.3847
578.2701
0.300086 0.519764 -0.311583
298.4753
298.4753
504.2123
504.2123
581.2181
581.2181
P	=	3000.05	V	=	92.50397	E	=	-655.22880978
0.0 0.0 0.0
-0.0
-0.0
0.0
330.1815
330.1815
668.3309
0.0 0.0 0.062326
50.5609
50.5609
119.6435
325.8843
325.8843
662.5678
0.0 0.0 0.124653
99.6522
99.6522
234.3314
313.0605
313.0605
644.8972
0.0 0.0 0.186979
146.2017
146.2017
292.0386
292.0386
339.558
614.2648
0.0 0.0 0.249306
189.5389
189.5389
263.6122
263.6122
431.7298
569.244
0.0 0.0 -0.311632
229.0094
229.0094
229.0094
229.0094
508.5611
508.5611
0.0 0.115491 0.0
94.2617
99.6712
212.8556
346.6261
378.6744
657.7447
0.0 0.115491 0.062326
112.4544
120.5784
235.3296
342.714
374.311
652.5791
0.0 0.115491 0.124653
142.931
163.7919
296.32
330.9862
361.4225
636.7873
0.0 0.115491 0.186979
179.9991
204.406
311.6453
340.1667
374.3655
609.535
0.0 0.115491 0.249306
217.8108
243.088
285.4059
312.5631
450.2959
569.7001
0.0 0.115491 -0.311632
253.5742
253.5742
279.5922
279.5922
516.469
516.469
0.0 0.230982 0.0
182.7058
183.8641
383.1652
388.0587
476.75
627.494
0.0 0.230982 0.062326
191.9382
193.3583
379.9161
399.0714
470.7744
625.203
0.0 0.230982 0.124653
213.2788
221.6535
370.093
426.9297
454.9836
617.7734
0.0 0.230982 0.186979
242.0668
260.3593
353.6913
421.984
472.3868
603.8477
0.0 0.230982 0.249306
273.3476
303.4147
331.2047
387.3486
513.7124
581.9965
0.0 0.230982 -0.311632
303.8299
303.8299
346.7508
346.7508
551.5892
551.5892
0.0 0.346474 0.0
241.634
260.6931
418.908
504.5463
564.1692
582.7558
0.0 0.346474 0.062326
248.3256
262.7868
415.9977
510.1098
544.0925
598.3473
0.0 0.346474 0.124653
266.4994
272.0571
407.2184
497.5792
541.2473
613.4118
0.0 0.346474 0.186979
291.8605
293.0253
392.5706
458.0297
564.966
620.5063
0.0 0.346474 0.249306
320.0483
326.1132
372.4125
413.2056
589.1791
618.6999
0.0 0.346474 -0.311632
347.6956
347.6956
367.7724
367.7724
607.9402
607.9402
0.0 0.461965 0.0
271.5565
323.0218
442.4359
534.7418
565.4929
615.9282
0.0 0.461965 0.062326
277.6781
319.7081
439.5129
519.5556
575.068
623.7167
0.0 0.461965 0.124653
294.6005
314.915
430.8039
487.3058
595.1657
637.9476
0.0 0.461965 0.186979
318.3209
318.7766
416.4944
447.8973
617.5276
648.9186
0.0 0.461965 0.249306
335.8101
346.0897
396.9628
406.0579
636.4515
652.895
0.0 0.461965 -0.311632
366.7293
366.7293
372.9912
372.9912
648.6981
648.6981
0.0 -0.577456 0.0
280.0908
351.6539
450.4301
509.6003
583.8156
631.7655
0.0 -0.577456 0.062326
286.0411
345.8097
447.4448
499.0765
592.0818
637.5571
0.0 -0.577456 0.124653
302.6183
334.6598
438.607
472.4812
611.6803
649.5953
0.0 -0.577456 0.186979
326.551
330.0385
424.208
437.2884
633.4804
660.1309
0.0 -0.577456 0.249306
339.7846
353.7954
399.2824
404.6619
651.2367
664.8604
0.0 -0.577456 -0.311632
364.5279
364.5279
380.6981
380.6981
662.0064
662.0064
0.100018 0.173237 0.0
160.0035
179.3414
323.627
395.3589
442.0325
637.2859
0.100018 0.173237 0.062326
171.9389
187.3046
335.1431
394.8927
436.7527
633.757
0.100018 0.173237 0.124653
201.8844
208.3324
354.3237
403.7827
421.311
622.8747
0.100018 0.173237 0.186979
236.5695
239.9473
350.1092
396.9431
442.3612
603.8213
0.100018 0.173237 0.249306
266.5817
278.0276
333.4106
365.9131
491.7244
575.5947
0.100018 0.173237 -0.311632
291.106
291.106
334.2007
334.2007
537.7787
537.7787
0.100018 0.288728 0.0
235.2873
254.4341
396.5692
483.8825
523.4285
599.4467
0.100018 0.288728 0.062326
236.1068
261.883
399.9803
486.4042
514.3347
602.8047
0.100018 0.288728 0.124653
244.7435
279.9914
403.0273
478.3534
510.3344
607.5874
0.100018 0.288728 0.186979
266.2005
303.6072
396.883
445.6577
532.5089
607.4048
0.100018 0.288728 0.249306
297.5915
326.5319
382.9192
409.0168
559.5758
599.4734
0.100018 0.288728 -0.311632
327.4417
327.4417
381.3131
381.3131
583.1409
583.1409
0.100018 0.404219 0.0
299.1072
303.3015
442.6061
544.2279
551.5111
590.7726
0.100018 0.404219 0.062326
291.9162
312.5649
442.1334
525.4303
559.0232
602.4734
0.100018 0.404219 0.124653
286.0871
329.0416
436.2939
493.5762
574.8777
619.3805
0.100018 0.404219 0.186979
290.4741
349.794
418.9772
462.1698
595.389
630.5532
0.100018 0.404219 0.249306
309.0086
362.1767
399.5242
436.0096
614.5541
633.5943
0.100018 0.404219 -0.311632
338.3291
338.3291
412.6338
412.6338
628.0252
628.0252
0.100018 0.519711 0.0
318.0259
352.4441
465.2259
509.6371
572.687
623.1773
0.100018 0.519711 0.062326
317.6574
351.4935
458.8285
502.5668
581.4815
628.5242
0.100018 0.519711 0.124653
312.2141
358.5374
438.5455
488.2002
601.3904
639.9689
0.100018 0.519711 0.186979
307.8255
376.1426
408.347
471.2131
623.2053
650.2189
0.100018 0.519711 0.249306
315.6031
368.9786
404.232
451.1442
641.0158
654.8313
0.100018 0.519711 -0.311632
337.7402
337.7402
428.1299
428.1299
651.8852
651.8852
0.200037 0.346474 0.0
296.4502
338.5953
434.0313
549.7415
557.3924
560.574
0.200037 0.346474 0.062326
290.3234
342.9723
441.4428
518.7946
562.4695
582.1729
0.200037 0.346474 0.124653
281.3244
354.3888
453.7164
480.5174
569.6732
602.838
0.200037 0.346474 0.186979
282.8818
366.255
444.1073
457.5516
583.3976
614.9983
0.200037 0.346474 0.249306
300.0647
359.4764
428.022
450.5843
599.6473
618.1168
0.200037 0.346474 -0.311632
329.468
329.468
437.4535
437.4535
612.4724
612.4724
0.200037 0.461965 0.0
353.7218
387.8164
479.9278
509.6948
558.3091
601.5189
0.200037 0.461965 0.062326
341.2668
393.8906
477.0623
500.8552
571.3028
604.3859
0.200037 0.461965 0.124653
319.6007
401.9359
452.7881
505.2384
589.7362
613.6296
0.200037 0.461965 0.186979
305.0792
387.8713
446.0391
505.7435
606.2948
624.8307
0.200037 0.461965 0.249306
306.0295
354.3132
461.8346
496.5409
620.6739
631.0672
0.200037 0.461965 -0.311632
323.9417
323.9417
480.679
480.679
629.6398
629.6398
0.200037 0.577456 0.0
385.1457
401.6434
480.8406
504.7418
554.4436
614.7427
0.200037 0.577456 0.062326
366.8884
414.36
457.0199
519.1246
563.8372
617.0043
0.200037 0.577456 0.124653
339.8158
419.8981
432.2142
528.5081
585.1087
623.6898
0.200037 0.577456 0.186979
318.3743
381.3476
452.7411
525.5341
607.587
631.9704
0.200037 0.577456 0.249306
311.0001
346.4933
474.7573
513.5668
625.061
636.8575
0.200037 0.577456 -0.311632
321.1539
321.1539
495.84
495.84
634.9678
634.9678
0.300055 0.519711 0.0
404.5282
457.2246
463.026
512.4915
542.0713
604.2441
0.300055 0.519711 0.062326
388.9836
439.0866
467.2198
525.2786
556.0897
602.6504
0.300055 0.519711 0.124653
358.3697
403.2696
478.8505
547.094
580.3333
599.7501
0.300055 0.519711 0.186979
330.4189
365.8643
495.9047
557.1853
600.6251
602.3021
0.300055 0.519711 0.249306
314.6899
334.7069
515.4816
550.1161
611.0814
612.9065
0.300055 0.519711 -0.311632
316.1595
316.1595
534.5458
534.5458
616.1284
616.1284
P	=	3200.14	V	=	91.13285	E	=	-655.19992284
0.0 0.0 0.0
-0.0
-0.0
0.0
336.9568
336.9568
683.2255
0.0 0.0 0.06233
51.6815
51.6815
122.2474
332.5831
332.5831
677.2845
0.0 0.0 0.124661
101.7776
101.7776
239.3992
319.5062
319.5062
659.0927
0.0 0.0 0.186991
149.1906
149.1906
298.0198
298.0198
346.848
627.6267
0.0 0.0 0.249322
193.3158
193.3158
268.9361
268.9361
440.9543
581.4924
0.0 0.0 -0.311652
233.5688
233.5688
233.5688
233.5688
519.4326
519.4326
0.0 0.115485 0.0
96.2302
101.7583
217.6353
353.7142
386.4481
672.329
0.0 0.115485 0.06233
114.8155
123.0226
240.6076
349.7243
381.9803
667.0129
0.0 0.115485 0.124661
145.9039
167.0218
302.8876
337.7501
368.7802
650.7768
0.0 0.115485 0.186991
183.6627
208.3729
317.9785
346.9975
382.5417
622.807
0.0 0.115485 0.249322
222.1695
247.7772
291.1479
318.7325
460.0255
582.0077
0.0 0.115485 -0.311652
258.6342
258.6342
285.0232
285.0232
527.5894
527.5894
0.0 0.23097 0.0
186.4082
187.64
390.9669
396.5975
486.5857
641.1732
0.0 0.23097 0.06233
195.8635
197.2751
387.6383
407.8027
480.4337
638.8441
0.0 0.23097 0.124661
217.5994
226.0742
377.5804
436.0778
464.2938
631.2656
0.0 0.23097 0.186991
246.9237
265.4132
360.8017
430.2832
482.6466
617.0201
0.0 0.23097 0.249322
278.7986
309.2042
337.8234
394.8253
524.8529
594.6542
0.0 0.23097 -0.311652
309.8815
309.8815
353.3653
353.3653
563.5554
563.5554
0.0 0.346455 0.0
246.4979
265.7772
427.4166
515.2968
575.9213
595.0773
0.0 0.346455 0.06233
253.3018
267.9641
424.4271
520.843
555.4226
611.1008
0.0 0.346455 0.124661
271.7913
277.4813
415.4188
507.5584
552.8243
626.6073
0.0 0.346455 0.186991
297.6166
298.834
400.4143
467.0777
577.039
633.9033
0.0 0.346455 0.249322
326.3483
332.4902
379.7995
421.2777
601.79
632.0405
0.0 0.346455 -0.311652
354.5559
354.5559
374.9224
374.9224
621.0
621.0
0.0 0.46194 0.0
276.9483
329.143
451.3988
545.6369
577.2354
628.7996
0.0 0.46194 0.06233
283.1708
325.8452
448.398
530.0798
587.0711
636.8138
0.0 0.46194 0.124661
300.3785
321.1168
439.4598
497.1189
607.6657
651.4681
0.0 0.46194 0.186991
324.6879
324.9817
424.7843
456.8788
630.5703
662.7594
0.0 0.46194 0.249322
342.5274
352.8119
404.7789
414.1672
649.9585
666.838
0.0 0.46194 -0.311652
374.042
374.042
380.2679
380.2679
662.5191
662.5191
0.0 -0.577424 0.0
285.6253
358.262
459.5421
519.7837
595.8301
644.9567
0.0 -0.577424 0.06233
291.6743
352.3883
456.4798
509.0681
604.3144
650.9212
0.0 -0.577424 0.124661
308.5292
341.2047
447.4117
481.9807
624.4339
663.3217
0.0 -0.577424 0.186991
332.8766
336.6433
432.6381
446.109
646.8089
674.1646
0.0 -0.577424 0.249322
346.6363
360.6285
407.338
412.603
665.0248
679.0166
0.0 -0.577424 -0.311652
371.8782
371.8782
388.0872
388.0872
676.0764
676.0764
0.100013 0.173227 0.0
163.2802
182.9954
330.6518
403.6559
451.1059
651.2606
0.100013 0.173227 0.06233
175.4402
191.11
342.3322
403.225
445.6708
647.6484
0.100013 0.173227 0.124661
205.9
212.5315
361.6185
412.5351
429.795
636.5043
0.100013 0.173227 0.186991
241.2906
244.5934
357.1431
404.7919
452.0266
616.9908
0.100013 0.173227 0.249322
271.8641
283.3668
340.0167
373.0204
502.4217
588.1046
0.100013 0.173227 -0.311652
296.8408
296.8408
340.6406
340.6406
549.4512
549.4512
0.100013 0.288712 0.0
239.953
259.5215
404.6733
494.2965
534.2868
612.2764
0.100013 0.288712 0.06233
240.8186
267.0957
408.1143
496.7642
525.0073
615.7722
0.100013 0.288712 0.124661
249.6292
285.5182
411.1525
487.9616
521.3222
620.7525
0.100013 0.288712 0.186991
271.435
309.5511
404.8166
454.4342
543.9914
620.6018
0.100013 0.288712 0.249322
303.3576
332.8808
390.5056
417.0104
571.6492
612.4802
0.100013 0.288712 -0.311652
333.768
333.768
388.7994
388.7994
595.755
595.755
0.100013 0.404197 0.0
305.0404
309.1276
451.5207
555.6339
562.9031
603.1651
0.100013 0.404197 0.06233
297.6097
318.7084
451.0235
536.1146
570.8758
615.1588
0.100013 0.404197 0.124661
291.7155
335.5104
445.0139
503.5271
587.0869
632.5473
0.100013 0.404197 0.186991
296.2185
356.6224
427.2842
471.4705
608.0434
644.0481
0.100013 0.404197 0.249322
315.0827
369.1759
407.4796
444.7354
627.655
647.1768
0.100013 0.404197 -0.311652
344.9164
344.9164
420.8459
420.8459
641.4608
641.4608
0.100013 0.519682 0.0
324.3192
359.1066
474.5813
519.8338
584.4786
636.2215
0.100013 0.519682 0.06233
323.8583
358.2775
467.9808
512.7008
593.504
641.7086
0.100013 0.519682 0.124661
318.2626
365.623
447.184
498.1596
613.9294
653.4743
0.100013 0.519682 0.186991
313.8796
383.5677
416.3943
480.814
636.3087
664.0208
0.100013 0.519682 0.249322
321.8597
376.2266
412.2735
460.2478
654.5799
668.7624
0.100013 0.519682 -0.311652
344.4195
344.4195
436.6837
436.6837
665.7346
665.7346
0.200026 0.346455 0.0
302.1942
345.2563
442.7834
560.9689
568.9641
572.6973
0.200026 0.346455 0.06233
295.9896
349.6896
450.3372
529.286
574.6007
594.3882
0.200026 0.346455 0.124661
286.8779
361.2572
462.8507
490.1288
581.8937
615.665
0.200026 0.346455 0.186991
288.4773
373.2656
452.9829
466.7378
595.8808
628.1957
0.200026 0.346455 0.249322
305.9491
366.3435
436.5826
459.5856
612.4999
631.4195
0.200026 0.346455 -0.311652
335.8475
335.8475
446.1674
446.1674
625.6383
625.6383
0.200026 0.46194 0.0
360.4719
395.5098
489.476
519.9128
569.7092
614.2895
0.200026 0.46194 0.06233
347.8125
401.6676
486.4994
510.9449
583.1093
617.1657
0.200026 0.46194 0.124661
325.8113
409.7372
461.8204
515.4913
602.1031
626.5524
0.200026 0.46194 0.186991
311.1083
395.3237
455.0475
516.0356
619.0822
638.0472
0.200026 0.46194 0.249322
312.1309
361.2338
471.1392
506.618
633.8204
644.4732
0.200026 0.46194 -0.311652
330.3653
330.3653
490.389
490.389
643.018
643.018
0.200026 0.577424 0.0
392.4775
409.6644
490.3011
514.7376
565.7282
627.7006
0.200026 0.577424 0.06233
373.8929
422.6441
465.8966
529.5969
575.3477
629.9826
0.200026 0.577424 0.124661
346.358
428.0181
440.8991
539.3456
597.1572
636.7845
0.200026 0.577424 0.186991
324.6329
388.7851
461.865
536.3569
620.2316
645.2709
0.200026 0.577424 0.249322
317.2275
353.3595
484.3713
524.1055
638.1813
650.2975
0.200026 0.577424 -0.311652
327.5989
327.5989
505.9488
505.9488
648.3602
648.3602
0.300039 0.519682 0.0
412.2724
466.5331
472.0605
522.5561
552.808
617.1423
0.300039 0.519682 0.06233
396.4244
447.5764
476.7618
535.6885
567.2099
615.481
0.300039 0.519682 0.124661
365.276
411.0201
488.6619
558.1423
592.1392
612.4204
0.300039 0.519682 0.186991
336.9207
372.992
506.0746
568.664
613.025
614.8904
0.300039 0.519682 0.249322
321.0264
341.3809
526.0964
561.526
623.8315
625.6748
0.300039 0.519682 -0.311652
322.5646
322.5646
545.6079
545.6079
629.0012
629.0012
P	=	3400.21	V	=	89.84022	E	=	-655.17092922
0.0 0.0 0.0
-0.0
0.0
0.0
343.3885
343.3885
697.7066
0.0 0.0 0.062334
52.8289
52.8289
124.7947
338.9506
338.9506
691.5761
0.0 0.0 0.124668
103.9572
103.9572
244.4117
325.662
325.662
672.8638
0.0 0.0 0.187002
152.2483
152.2483
303.7863
303.7863
354.1321
640.6375
0.0 0.0 0.249336
197.1418
197.1418
274.1454
274.1454
450.1962
593.5385
0.0 0.0 -0.31167
238.1116
238.1116
238.1116
238.1116
530.2522
530.2522
0.0 0.115482 0.0
98.1735
103.7246
221.9962
360.4812
393.7512
686.5114
0.0 0.115482 0.062334
117.0862
125.3632
245.5842
356.4248
389.2255
681.0357
0.0 0.115482 0.124668
148.8385
170.1801
309.2906
344.2401
375.8231
664.3577
0.0 0.115482 0.187002
187.3202
212.3516
324.0991
353.6235
390.6245
635.7327
0.0 0.115482 0.249336
226.5158
252.4752
296.7556
324.7824
469.6902
594.0897
0.0 0.115482 -0.31167
263.6346
263.6346
290.4046
290.4046
538.5993
538.5993
0.0 0.230963 0.0
190.0939
191.2859
398.4987
404.5428
495.829
654.4892
0.0 0.230963 0.062334
199.6743
201.1283
395.1005
416.0514
489.5968
652.1086
0.0 0.230963 0.124668
221.8354
230.4159
384.8353
444.9052
473.3282
644.374
0.0 0.230963 0.187002
251.714
270.4379
367.7197
438.4041
492.7305
629.847
0.0 0.230963 0.249336
284.1759
314.9716
344.2955
402.1997
535.8126
607.0343
0.0 0.230963 -0.31167
315.8296
315.8296
359.9186
359.9186
575.304
575.304
0.0 0.346445 0.0
251.3051
270.8762
435.7475
525.561
587.2213
607.1068
0.0 0.346445 0.062334
258.2242
273.1376
432.6869
531.147
566.4713
623.4752
0.0 0.346445 0.124668
277.0345
282.8885
423.471
517.3044
564.1901
639.4395
0.0 0.346445 0.187002
303.3247
304.6334
408.1373
476.0133
588.9358
646.9881
0.0 0.346445 0.249336
332.5929
338.8484
387.0927
429.2838
614.2093
645.1146
0.0 0.346445 -0.31167
361.3448
361.3448
382.0291
382.0291
633.8311
633.8311
0.0 0.461926 0.0
282.3518
335.2911
460.3074
556.3342
588.7171
641.5282
0.0 0.461926 0.062334
288.6693
332.0189
457.2345
540.4342
598.8261
649.755
0.0 0.461926 0.124668
306.1525
327.3741
448.0825
506.8185
619.9367
664.8238
0.0 0.461926 0.187002
331.1173
331.1809
433.0606
465.7979
643.4029
676.4381
0.0 0.461926 0.249336
349.2895
359.5347
412.5966
422.254
663.2751
680.6188
0.0 0.461926 -0.31167
381.3673
381.3673
387.5507
387.5507
676.1674
676.1674
0.0 -0.577408 0.0
291.1956
364.8859
468.6612
529.8252
607.6992
658.1652
0.0 -0.577408 0.062334
297.3346
359.0092
465.5264
518.9386
616.3679
664.2795
0.0 -0.577408 0.124668
314.4528
347.8348
456.2404
491.3971
636.9559
677.0048
0.0 -0.577408 0.187002
339.2151
343.3496
441.1084
454.886
659.8972
688.1288
0.0 -0.577408 0.249336
353.574
367.4908
415.3943
420.5948
678.6141
693.0771
0.0 -0.577408 -0.31167
379.2764
379.2764
395.5229
395.5229
690.0063
690.0063
0.10001 0.173222 0.0
166.5325
186.4931
337.1632
411.5897
459.5994
664.8579
0.10001 0.173222 0.062334
178.8553
194.7892
349.1085
411.2259
454.088
661.1533
0.10001 0.173222 0.124668
209.8097
216.6629
368.6319
421.0495
437.9473
649.746
0.10001 0.173222 0.187002
245.9801
249.1822
363.9792
412.4472
461.5226
629.8158
0.10001 0.173222 0.249336
277.1075
288.6372
346.5104
380.0019
512.9559
600.3485
0.10001 0.173222 -0.31167
302.4885
302.4885
347.0037
347.0037
560.9276
560.9276
0.10001 0.288704 0.0
244.6146
264.4905
412.4011
504.258
544.6167
624.7805
0.10001 0.288704 0.062334
245.4852
272.2212
415.9158
506.7121
535.2853
628.3765
0.10001 0.288704 0.124668
254.4362
291.0073
419.0166
497.2799
532.0986
633.5365
0.10001 0.288704 0.187002
276.5868
315.489
412.5591
463.0528
555.2991
633.4521
0.10001 0.288704 0.249336
309.0269
339.2106
397.9619
424.8951
583.5168
625.1871
0.10001 0.288704 -0.31167
340.0055
340.0055
396.2
396.2
608.1146
608.1146
0.10001 0.404185 0.0
310.9123
314.9649
460.2245
566.6967
574.0477
615.3036
0.10001 0.404185 0.062334
303.2827
324.833
459.7181
546.5426
582.4809
627.5663
0.10001 0.404185 0.124668
297.3296
341.977
453.5785
513.2967
599.0938
645.4364
0.10001 0.404185 0.187002
301.9317
363.4695
435.4759
480.64
620.5101
657.2822
0.10001 0.404185 0.249336
321.096
376.1772
415.3407
453.3739
640.5513
660.5144
0.10001 0.404185 -0.31167
351.4393
351.4393
428.9991
428.9991
654.6685
654.6685
0.10001 0.519667 0.0
330.5843
365.7654
483.8597
529.863
596.0884
649.256
0.10001 0.519667 0.062334
330.0449
365.0678
477.0713
522.6809
605.3195
654.858
0.10001 0.519667 0.124668
324.336
372.7091
455.7888
507.989
626.2244
666.8997
0.10001 0.519667 0.187002
319.9594
390.9956
424.4088
490.3211
649.1613
677.7076
0.10001 0.519667 0.249336
328.1107
383.4571
420.2909
469.2967
667.921
682.5487
0.10001 0.519667 -0.31167
351.0716
351.0716
445.2096
445.2096
679.4027
679.4027
0.20002 0.346445 0.0
307.9331
351.8369
451.137
571.7733
580.2637
584.6145
0.20002 0.346445 0.062334
301.6423
356.3519
458.857
539.4964
586.5561
606.2342
0.20002 0.346445 0.124668
292.4003
368.124
471.6661
499.5444
593.9835
628.1287
0.20002 0.346445 0.187002
294.0019
380.3068
461.7029
475.6901
608.2187
641.0546
0.20002 0.346445 0.249336
311.7151
373.1741
445.032
468.4388
625.1424
644.4106
0.20002 0.346445 -0.31167
342.1097
342.1097
454.784
454.784
638.5318
638.5318
0.20002 0.461926 0.0
367.1872
403.1123
498.7791
529.9221
580.8827
627.013
0.20002 0.461926 0.062334
354.3459
409.3719
495.7391
520.799
594.6767
629.8739
0.20002 0.461926 0.124668
332.0255
417.5162
470.6974
525.4831
614.2501
639.3225
0.20002 0.461926 0.187002
317.092
402.7475
463.9143
526.1096
631.6509
651.0419
0.20002 0.461926 0.249336
318.1068
368.0477
480.3266
516.5287
646.7275
657.6294
0.20002 0.461926 -0.31167
336.6345
336.6345
499.9696
499.9696
656.1432
656.1432
0.20002 0.577408 0.0
399.7422
417.5783
499.5959
524.6095
576.8518
640.6772
0.20002 0.577408 0.062334
380.8746
430.8083
474.6833
539.8861
586.6573
642.9504
0.20002 0.577408 0.124668
352.9117
436.0899
449.4545
549.9837
608.9443
649.7994
0.20002 0.577408 0.187002
330.8573
396.1522
470.853
546.9902
632.5923
658.4255
0.20002 0.577408 0.249336
323.3304
360.0927
493.8431
534.4718
651.0339
663.5441
0.20002 0.577408 -0.31167
333.8753
333.8753
515.9031
515.9031
661.5193
661.5193
0.30003 0.519667 0.0
419.9148
475.695
480.9263
532.4818
563.4339
630.0038
0.30003 0.519667 0.062334
403.8134
455.9782
486.1199
545.9123
578.1656
628.2519
0.30003 0.519667 0.124668
372.1648
418.7228
498.2641
568.9517
603.7229
624.9744
0.30003 0.519667 0.187002
343.3423
380.0263
516.0186
579.8987
625.1758
627.2902
0.30003 0.519667 0.249336
327.1675
347.8623
536.4801
572.7004
636.3468
638.1868
0.30003 0.519667 -0.31167
328.72
328.72
556.4375
556.4375
641.6221
641.6221
P	=	3600.09	V	=	88.62327	E	=	-655.14197804
0.0 0.0 0.0
-0.0
-0.0
0.0
349.6079
349.6079
711.7453
0.0 0.0 0.062335
53.713
53.713
127.0966
345.0748
345.0748
705.4318
0.0 0.0 0.12467
105.7332
105.7332
248.9903
331.5149
331.5149
686.2099
0.0 0.0 0.187005
154.9091
154.9091
309.2232
309.2232
360.8829
653.2203
0.0 0.0 0.24934
200.642
200.642
279.0466
279.0466
458.891
605.1266
0.0 0.0 -0.311675
242.3657
242.3657
242.3657
242.3657
540.5638
540.5638
0.0 0.115479 0.0
99.9428
105.5181
226.351
367.0041
400.8945
700.242
0.0 0.115479 0.062335
119.1058
127.5262
250.4222
362.8593
396.27
694.6198
0.0 0.115479 0.12467
151.4194
173.1026
315.3529
350.4229
382.5812
677.5273
0.0 0.115479 0.187005
190.6131
216.0375
329.8974
359.902
398.2704
648.2628
0.0 0.115479 0.24934
230.5445
256.8707
302.0601
330.4914
478.8923
605.764
0.0 0.115479 -0.311675
268.3458
268.3458
295.4733
295.4733
549.1694
549.1694
0.0 0.230957 0.0
193.4908
194.6563
405.7114
412.4195
504.9134
667.3472
0.0 0.230957 0.062335
203.1903
204.7383
402.2364
424.1584
498.5559
664.9417
0.0 0.230957 0.12467
225.7478
234.5675
391.7527
453.4282
482.0948
657.1008
0.0 0.230957 0.187005
256.1782
275.2675
374.3034
446.1489
502.4733
642.3187
0.0 0.230957 0.24934
289.2441
320.5044
350.4519
409.2242
546.39
619.0525
0.0 0.230957 -0.311675
321.4757
321.4757
366.1811
366.1811
586.6726
586.6726
0.0 0.346436 0.0
255.817
275.654
443.6828
535.5857
598.2437
618.7102
0.0 0.346436 0.062335
262.8498
278.0306
440.5514
541.1565
577.2155
635.4641
0.0 0.346436 0.12467
281.9786
288.0898
431.132
526.7009
575.2334
651.8766
0.0 0.346436 0.187005
308.7311
310.2702
415.4833
484.639
600.4379
659.6512
0.0 0.346436 0.24934
338.5282
345.0424
394.033
437.0364
626.1905
657.7423
0.0 0.346436 -0.311675
367.8066
367.8066
388.9369
388.9369
646.208
646.208
0.0 0.461915 0.0
287.4848
341.1357
468.7723
566.6674
599.7329
653.8398
0.0 0.461915 0.062335
293.8947
337.9003
465.6286
550.4419
610.1187
662.2605
0.0 0.461915 0.12467
311.6456
333.3703
456.2696
516.2184
631.7336
677.7095
0.0 0.461915 0.187005
337.0849
337.325
440.9193
474.4705
655.7368
689.6118
0.0 0.461915 0.24934
355.8607
365.9392
420.0271
430.1371
676.0664
693.8683
0.0 0.461915 -0.311675
388.5092
388.5092
394.4825
394.4825
689.2769
689.2769
0.0 -0.577394 0.0
296.5124
371.2182
477.3215
539.5383
618.996
670.8941
0.0 -0.577394 0.062335
302.7352
365.3327
474.115
528.4967
627.8623
677.1507
0.0 -0.577394 0.12467
320.1014
354.1699
464.6176
500.54
648.9358
690.1805
0.0 -0.577394 0.187005
345.257
349.7894
449.1462
463.4327
672.4407
701.5567
0.0 -0.577394 0.24934
360.2854
374.0285
423.2493
428.1867
691.642
706.5754
0.0 -0.577394 -0.311675
386.475
386.475
402.5979
402.5979
703.3645
703.3645
0.100008 0.173218 0.0
169.5171
189.7608
343.5548
419.3039
467.9421
677.9961
0.100008 0.173218 0.062335
182.0471
198.2025
355.6705
419.008
462.3062
674.2216
0.100008 0.173218 0.12467
213.5342
220.4703
375.2872
429.3238
445.8009
662.5972
0.100008 0.173218 0.187005
250.3302
253.5638
370.4659
419.7377
470.6775
642.2811
0.100008 0.173218 0.24934
282.0331
293.6525
352.6903
386.6262
523.1078
612.232
0.100008 0.173218 -0.311675
307.8341
307.8341
353.061
353.061
572.0261
572.0261
0.100008 0.288697 0.0
248.9502
269.1833
419.8233
513.997
554.7091
636.8406
0.100008 0.288697 0.062335
249.8781
277.0549
423.3734
516.4055
545.3045
640.5656
0.100008 0.288697 0.12467
259.0504
296.1847
426.4927
506.2542
542.6071
645.9346
0.100008 0.288697 0.187005
281.582
321.1086
419.9233
471.3291
566.2718
645.9153
0.100008 0.288697 0.24934
314.5124
345.2298
405.0884
432.4823
594.9998
637.4935
0.100008 0.288697 -0.311675
345.9788
345.9788
403.3219
403.3219
620.0699
620.0699
0.100008 0.404176 0.0
316.4949
320.476
468.5145
577.3626
584.7993
627.0661
0.100008 0.404176 0.062335
308.6542
330.6565
467.9915
556.5917
593.703
639.5652
0.100008 0.404176 0.12467
302.6829
348.1407
461.7271
522.7221
610.7026
657.8789
0.100008 0.404176 0.187005
307.4466
370.009
443.3126
489.4829
632.5443
670.041
0.100008 0.404176 0.24934
326.9506
382.9054
422.912
461.6862
652.981
673.3614
0.100008 0.404176 -0.311675
357.7821
357.7821
436.838
436.838
667.3883
667.3883
0.100008 0.519654 0.0
336.5629
372.1161
492.6696
539.5527
607.1405
661.8048
0.100008 0.519654 0.062335
335.9308
371.5466
485.7163
532.3071
616.5919
667.5192
0.100008 0.519654 0.12467
330.0984
379.4837
464.0167
517.4396
637.993
679.8241
0.100008 0.519654 0.187005
325.7763
398.1117
432.1328
499.4451
661.4866
690.8729
0.100008 0.519654 0.24934
334.1735
390.485
427.9844
477.9793
680.7237
695.796
0.100008 0.519654 -0.311675
357.5657
357.5657
453.3916
453.3916
692.5258
692.5258
0.200015 0.346436 0.0
313.3293
358.1118
459.1315
582.1667
591.1574
596.1768
0.200015 0.346436 0.062335
306.9751
362.6957
466.9886
549.3246
598.165
617.6465
0.200015 0.346436 0.12467
297.6666
374.6493
480.0485
508.6186
605.735
640.1334
0.200015 0.346436 0.187005
299.3593
387.0081
470.1361
484.2094
620.1951
653.4405
0.200015 0.346436 0.24934
317.3733
379.762
453.1862
476.9008
637.378
656.9324
0.200015 0.346436 -0.311675
348.24
348.24
463.057
463.057
650.9789
650.9789
0.200015 0.461915 0.0
373.5678
410.3546
507.6297
539.5737
591.5097
639.2448
0.200015 0.461915 0.062335
360.5257
416.7106
504.5633
530.2406
605.7199
642.101
0.200015 0.461915 0.12467
337.8987
424.9323
479.2138
535.0141
625.9054
651.6084
0.200015 0.461915 0.187005
322.842
409.9113
472.4168
535.7332
643.7516
663.5338
0.200015 0.461915 0.24934
323.9926
374.7428
489.1438
526.028
659.1603
670.2832
0.200015 0.461915 -0.311675
342.8655
342.8655
509.1696
509.1696
668.7791
668.7791
0.200015 0.577394 0.0
406.679
425.1072
508.5567
533.9685
587.3883
653.1041
0.200015 0.577394 0.062335
387.4895
438.5868
483.1013
549.6885
597.4023
655.3829
0.200015 0.577394 0.12467
359.0933
443.8254
457.6088
560.1343
620.1952
662.2991
0.200015 0.577394 0.187005
336.8172
403.2898
479.4426
557.1666
644.4295
671.0701
0.200015 0.577394 0.24934
329.3419
366.7434
502.9276
544.4241
663.3713
676.2817
0.200015 0.577394 -0.311675
340.1439
340.1439
525.4691
525.4691
674.1692
674.1692
0.300023 0.519654 0.0
427.2217
484.3632
489.4542
541.9029
573.4907
642.2903
0.300023 0.519654 0.062335
410.8232
463.9934
494.998
555.6463
588.5779
640.4684
0.300023 0.519654 0.12467
378.6677
426.0664
507.3808
579.269
614.7735
637.0241
0.300023 0.519654 0.187005
349.5143
386.831
525.5005
590.6545
636.8043
639.2209
0.300023 0.519654 0.24934
333.2768
354.3117
546.4306
583.4387
648.3936
650.202
0.300023 0.519654 -0.311675
334.9484
334.9484
566.8478
566.8478
653.7679
653.7679
P	=	3800.04	V	=	87.4723	E	=	-655.11303162
0.0 0.0 0.0
-0.0
-0.0
0.0
355.6813
355.6813
725.4575
0.0 0.0 0.062337
54.618
54.618
129.3943
351.0642
351.0642
718.965
0.0 0.0 0.124674
107.5177
107.5177
253.5257
337.2546
337.2546
699.2397
0.0 0.0 0.18701
157.5312
157.5312
314.5565
314.5565
367.5119
665.488
0.0 0.0 0.249347
204.0521
204.0521
283.8366
283.8366
467.373
616.4042
0.0 0.0 -0.311684
246.505
246.505
246.505
246.505
550.5948
550.5948
0.0 0.115476 0.0
101.7199
107.2804
230.5058
373.3703
407.7801
713.6573
0.0 0.115476 0.062337
121.0962
129.6029
255.0864
369.1414
403.0716
707.8708
0.0 0.115476 0.124674
153.9581
175.8622
321.25
356.4605
389.1308
690.3285
0.0 0.115476 0.18701
193.8255
219.5532
335.5497
366.011
405.7121
660.4091
0.0 0.115476 0.249347
234.4482
261.1046
307.2116
336.046
487.845
617.0788
0.0 0.115476 -0.311684
272.9062
272.9062
300.3881
300.3881
559.4332
559.4332
0.0 0.230952 0.0
196.84
197.9703
412.753
419.9583
513.6096
679.9066
0.0 0.230952 0.062337
206.6336
208.1856
409.1969
431.9269
507.1426
677.4148
0.0 0.230952 0.124674
229.5499
238.4161
398.4846
461.6147
490.5134
669.3619
0.0 0.230952 0.18701
260.4926
279.8023
380.6911
453.6109
511.856
654.2983
0.0 0.230952 0.249347
294.1328
325.8081
356.4072
416.0035
556.6329
630.6462
0.0 0.230952 -0.311684
326.9255
326.9255
372.2314
372.2314
597.6917
597.6917
0.0 0.346428 0.0
260.2674
280.266
451.4448
545.2471
608.8745
630.0063
0.0 0.346428 0.062337
267.3901
282.6714
448.2367
550.7851
587.5924
647.0517
0.0 0.346428 0.124674
286.7884
292.9184
438.6024
535.6894
585.8642
663.8381
0.0 0.346428 0.18701
313.9661
315.5518
422.6325
492.8472
611.5335
671.8445
0.0 0.346428 0.249347
344.2774
350.9713
400.7786
444.445
637.8055
669.9685
0.0 0.346428 -0.311684
374.078
374.078
395.5876
395.5876
658.2331
658.2331
0.0 0.461904 0.0
292.5711
346.7009
477.0678
576.6541
610.4661
665.8087
0.0 0.461904 0.062337
299.0536
343.4704
473.8482
560.0655
621.0895
674.4039
0.0 0.461904 0.124674
317.033
339.0101
464.2746
525.1681
643.1478
690.201
0.0 0.461904 0.18701
342.8567
343.2007
448.599
482.6912
667.6764
702.397
0.0 0.461904 0.249347
362.1654
372.2026
427.2938
437.6549
688.502
706.7697
0.0 0.461904 -0.311684
395.38
395.38
401.266
401.266
702.0589
702.0589
0.0 -0.57738 0.0
301.7927
377.2294
485.8145
548.8772
630.065
683.3057
0.0 -0.57738 0.062337
308.0838
371.3317
482.5314
537.651
639.0782
689.6896
0.0 -0.57738 0.124674
325.6681
360.1776
472.8163
509.2324
660.5532
703.0016
0.0 -0.57738 0.18701
351.1972
355.9293
457.0124
471.5385
684.5965
714.6372
0.0 -0.57738 0.249347
366.7407
380.4554
430.7461
435.6298
704.3192
719.7555
0.0 -0.57738 -0.311684
393.4029
393.4029
409.5483
409.5483
716.4097
716.4097
0.100005 0.173214 0.0
172.4789
192.9363
349.7098
426.7835
475.9279
690.8334
0.100005 0.173214 0.062337
185.1039
201.5166
362.0142
426.5325
470.1876
686.9398
0.100005 0.173214 0.124674
216.9978
224.1577
381.7646
437.2733
453.3638
675.0093
0.100005 0.173214 0.18701
254.5301
257.6944
376.7541
426.7862
479.5024
654.2788
0.100005 0.173214 0.249347
286.7791
298.4748
358.6494
393.0454
532.944
623.7031
0.100005 0.173214 -0.311684
312.9925
312.9925
358.9169
358.9169
582.7843
582.7843
0.100005 0.28869 0.0
253.1775
273.7497
427.0383
523.3931
564.4217
648.6068
0.100005 0.28869 0.062337
254.0753
281.738
430.6261
525.7307
554.9609
652.3839
0.100005 0.28869 0.124674
263.3547
301.1653
433.7569
514.8683
552.703
657.8604
0.100005 0.28869 0.18701
286.2842
326.505
427.0559
479.2527
576.8289
657.9013
0.100005 0.28869 0.249347
319.7826
351.0262
411.9678
439.7654
606.1103
649.3926
0.100005 0.28869 -0.311684
351.7529
351.7529
410.1825
410.1825
631.6695
631.6695
0.100005 0.404166 0.0
321.9626
325.7688
476.6107
587.7205
595.2383
638.4854
0.100005 0.404166 0.062337
313.8388
336.2743
476.0654
566.2958
604.5848
651.1979
0.100005 0.404166 0.124674
307.7832
354.0689
469.6551
531.7483
621.9211
669.9166
0.100005 0.404166 0.18701
312.7086
376.3035
450.8815
497.9529
644.1788
682.3973
0.100005 0.404166 0.249347
332.5992
389.3981
430.2038
469.7002
665.0459
685.8457
0.100005 0.404166 -0.311684
363.9194
363.9194
444.4118
444.4118
679.7679
679.7679
0.100005 0.519642 0.0
342.4509
378.1783
501.2974
548.8987
617.9661
674.0452
0.100005 0.519642 0.062337
341.7055
377.7515
494.1518
541.5938
627.5925
679.855
0.100005 0.519642 0.124674
335.706
386.0111
471.9712
526.5712
649.4158
692.3984
0.100005 0.519642 0.18701
331.4223
404.989
439.5536
508.2804
673.4403
703.6898
0.100005 0.519642 0.249347
340.0631
397.2492
435.4386
486.402
693.1792
708.7167
0.100005 0.519642 -0.311684
363.8543
363.8543
461.3329
461.3329
705.3278
705.3278
0.20001 0.346428 0.0
318.5453
364.1974
466.9137
592.2505
601.7596
607.4181
0.20001 0.346428 0.062337
312.0918
368.8375
474.8962
558.8346
609.4225
628.7258
0.20001 0.346428 0.124674
302.6637
380.9468
488.1855
517.328
617.0767
651.7633
0.20001 0.346428 0.18701
304.4565
393.4626
478.191
492.4635
631.746
665.4494
0.20001 0.346428 0.249347
322.8181
386.0995
461.0114
485.0808
649.2299
669.1043
0.20001 0.346428 -0.311684
354.1567
354.1567
471.0336
471.0336
663.0814
663.0814
0.20001 0.461904 0.0
379.712
417.4251
516.2757
548.9311
601.9136
651.1891
0.20001 0.461904 0.062337
366.5067
423.8534
513.144
539.4177
616.5046
654.0218
0.20001 0.461904 0.124674
343.6101
432.1178
487.4517
544.2855
637.2413
663.5664
0.20001 0.461904 0.18701
328.4309
416.8119
480.6346
545.0788
655.4948
675.6975
0.20001 0.461904 0.249347
329.6892
381.1796
497.6648
535.2311
671.2428
682.6124
0.20001 0.461904 -0.311684
348.8687
348.8687
518.0675
518.0675
681.0834
681.0834
0.20001 0.57738 0.0
413.3596
432.4877
517.22
543.1297
597.7407
665.2571
0.20001 0.57738 0.062337
393.9291
446.1764
491.2582
559.2689
607.9224
667.5251
0.20001 0.57738 0.124674
365.1689
451.3188
465.5492
570.0495
631.1573
674.4847
0.20001 0.57738 0.18701
342.671
410.1863
487.7834
567.0764
655.9432
683.3935
0.20001 0.57738 0.249347
335.1828
373.1447
511.7311
554.0829
675.3772
688.6965
0.20001 0.57738 -0.311684
346.1801
346.1801
534.7369
534.7369
686.4913
686.4913
0.300015 0.519642 0.0
434.2874
492.8698
497.7181
551.1332
583.3625
654.3136
0.300015 0.519642 0.062337
417.6618
471.8043
503.6953
565.1587
598.7777
652.4062
0.300015 0.519642 0.124674
385.0851
433.2539
516.2914
589.3318
625.5866
648.7619
0.300015 0.519642 0.18701
355.5904
393.4732
534.73
601.1162
648.166
650.8226
0.300015 0.519642 0.249347
339.1966
360.5377
556.0849
593.8508
660.1061
661.9117
0.300015 0.519642 -0.311684
340.9232
340.9232
576.9337
576.9337
665.582
665.582
P	=	4000.01	V	=	86.38092	E	=	-655.08409898
0.0 0.0 0.0
-0.0
-0.0
-0.0
361.6198
361.6198
738.7997
0.0 0.0 0.062339
55.6173
55.6173
131.7666
356.9395
356.9395
732.1397
0.0 0.0 0.124678
109.4243
109.4243
258.1066
342.922
342.922
711.9223
0.0 0.0 0.187017
160.2271
160.2271
319.8428
319.8428
374.0388
677.3853
0.0 0.0 0.249356
207.4617
207.4617
288.5788
288.5788
475.5706
627.2712
0.0 0.0 -0.311695
250.6001
250.6001
250.6001
250.6001
560.2272
560.2272
0.0 0.115473 0.0
103.4776
109.0083
234.746
379.5918
414.5602
726.7117
0.0 0.115473 0.062339
123.1049
131.8351
259.7612
375.3015
409.7582
720.7889
0.0 0.115473 0.124678
156.5711
178.7506
327.1127
362.4214
395.5478
702.8389
0.0 0.115473 0.187017
197.0896
223.0325
341.1516
371.9789
413.0382
672.2543
0.0 0.115473 0.249356
238.3404
265.2157
312.3099
341.4592
496.5318
628.0386
0.0 0.115473 -0.311695
277.4147
277.4147
305.1624
305.1624
569.3327
569.3327
0.0 0.230946 0.0
200.1903
201.2681
419.6023
427.5818
522.1734
692.1289
0.0 0.230946 0.062339
210.0947
211.7684
415.9846
439.694
515.5517
689.6079
0.0 0.230946 0.124678
233.4136
242.4478
405.0826
469.6581
498.6999
681.4261
0.0 0.230946 0.187017
264.8496
284.3007
386.9693
460.7959
521.0482
666.0729
0.0 0.230946 0.249356
298.9959
330.8713
362.2591
422.4976
566.6246
641.9624
0.0 0.230946 -0.311695
332.292
332.292
377.9874
377.9874
608.4071
608.4071
0.0 0.346419 0.0
264.7882
284.9224
458.9179
554.8103
619.2792
641.0012
0.0 0.346419 0.062339
272.0093
287.4434
455.6431
560.2375
597.7502
658.3817
0.0 0.346419 0.124678
291.676
297.9278
445.8169
544.4121
596.3013
675.5527
0.0 0.346419 0.187017
319.2316
320.8311
429.5512
500.7882
622.3821
683.7574
0.0 0.346419 0.249356
349.9712
356.6503
407.3265
451.5363
649.129
681.8719
0.0 0.346419 -0.311695
380.2089
380.2089
401.8858
401.8858
669.9314
669.9314
0.0 0.461891 0.0
297.8391
352.3283
484.9687
586.3879
620.8235
677.4622
0.0 0.461891 0.062339
304.3651
349.1314
481.6773
569.4589
631.7107
686.229
0.0 0.461891 0.124678
322.4988
344.7364
471.9057
533.9348
654.2327
702.3737
0.0 0.461891 0.187017
348.6131
349.0163
455.9409
490.7111
679.2799
714.8439
0.0 0.461891 0.249356
368.2052
378.3551
434.2818
444.8808
700.5703
719.2972
0.0 0.461891 -0.311695
401.8981
401.8981
407.8489
407.8489
714.4519
714.4519
0.0 -0.577364 0.0
307.3071
383.2974
493.8664
557.9924
640.6294
695.3595
0.0 -0.577364 0.062339
313.6178
377.383
490.5097
546.6139
649.825
701.8893
0.0 -0.577364 0.124678
331.3071
366.1916
480.5939
517.7816
671.7601
715.51
0.0 -0.577364 0.187017
357.0919
361.9395
464.5012
479.4796
696.3592
727.3914
0.0 -0.577364 0.249356
372.9012
386.74
437.9754
442.7649
716.5837
732.5576
0.0 -0.577364 -0.311695
399.9816
399.9816
416.272
416.272
729.0377
729.0377
0.100002 0.173209 0.0
175.432
196.0725
355.927
434.1444
483.7938
703.3256
0.100002 0.173209 0.062339
188.3045
204.8188
368.3514
433.9386
477.9119
699.3624
0.100002 0.173209 0.124678
220.6523
227.8673
388.1747
445.0906
460.7042
687.2024
0.100002 0.173209 0.187017
258.7336
261.8162
382.9448
433.5852
488.1652
666.0544
0.100002 0.173209 0.249356
291.4736
303.1485
364.462
399.2197
542.5358
634.8834
0.100002 0.173209 -0.311695
318.057
318.057
364.5319
364.5319
593.2283
593.2283
0.100002 0.288682 0.0
257.4322
278.3015
434.14
532.6811
573.9321
660.0546
0.100002 0.288682 0.062339
258.4093
286.4223
437.744
534.8886
564.4037
663.9383
0.100002 0.288682 0.124678
267.8661
306.1615
440.8626
523.1938
562.6185
669.5712
0.100002 0.288682 0.187017
291.034
331.8699
433.9998
486.8821
587.179
669.6415
0.100002 0.288682 0.249356
324.9036
356.701
418.6171
446.7474
616.9694
660.9923
0.100002 0.288682 -0.311695
357.3342
357.3342
416.7612
416.7612
642.9682
642.9682
0.100002 0.404155 0.0
327.4847
331.1133
484.4101
597.7734
605.3992
649.6166
0.100002 0.404155 0.062339
319.1199
341.947
483.8406
575.715
615.2148
662.5194
0.100002 0.404155 0.124678
313.0133
360.0237
477.2852
540.5291
632.8908
681.628
0.100002 0.404155 0.187017
317.9895
382.5458
458.1643
506.1561
655.5481
694.4055
0.100002 0.404155 0.249356
338.0798
395.7117
437.221
477.4106
676.8021
697.9619
0.100002 0.404155 -0.311695
369.7972
369.7972
451.6996
451.6996
691.7923
691.7923
0.100002 0.519628 0.0
348.4528
384.2805
509.5011
558.0128
628.3153
685.9143
0.100002 0.519628 0.062339
347.5693
383.9923
502.1977
550.6341
638.1557
691.8415
0.100002 0.519628 0.124678
341.3499
392.526
479.6215
535.4139
660.4597
704.6521
0.100002 0.519628 0.187017
337.0009
411.7601
446.7193
516.7871
685.0283
716.1741
0.100002 0.519628 0.249356
345.7486
403.7653
442.6587
494.4884
705.2424
721.2598
0.100002 0.519628 -0.311695
369.8683
369.8683
468.9725
468.9725
717.7233
717.7233
0.200005 0.346419 0.0
323.8036
370.2096
474.5621
601.9342
612.0709
618.4368
0.200005 0.346419 0.062339
317.3098
374.9152
482.6547
568.0151
620.4613
639.46
0.200005 0.346419 0.124678
307.8132
387.1842
496.1306
525.7414
628.2155
663.0342
0.200005 0.346419 0.187017
309.6022
399.8133
485.9578
500.459
643.0982
677.0794
0.200005 0.346419 0.249356
328.1186
392.2227
468.555
492.9563
660.8319
680.8968
0.200005 0.346419 -0.311695
359.8188
359.8188
478.7097
478.7097
674.8535
674.8535
0.200005 0.461891 0.0
385.8694
424.3898
524.6276
558.0435
611.8294
662.7524
0.200005 0.461891 0.062339
372.4961
430.8961
521.4464
548.3191
626.8526
665.5902
0.200005 0.461891 0.124678
349.3235
439.1899
495.4223
553.2586
648.2246
675.1902
0.200005 0.461891 0.187017
333.9697
423.5101
488.616
554.0868
666.9443
687.4911
0.200005 0.461891 0.249356
335.2288
387.36
505.904
544.0771
683.0004
694.5433
0.200005 0.461891 -0.311695
354.627
354.627
526.6268
526.6268
693.0066
693.0066
0.200005 0.577364 0.0
420.0172
439.761
525.6755
551.8537
607.6194
676.9642
0.200005 0.577364 0.062339
400.3141
453.6577
499.161
568.4551
618.0212
679.2686
0.200005 0.577364 0.124678
371.1554
458.5652
473.3495
579.5679
641.7664
686.3429
0.200005 0.577364 0.187017
348.3931
416.8416
495.923
576.5985
667.1062
695.3903
0.200005 0.577364 0.249356
340.8348
379.3003
520.2502
563.3658
686.9924
700.7345
0.200005 0.577364 -0.311695
351.9816
351.9816
543.6559
543.6559
698.404
698.404
0.300007 0.519628 0.0
441.2815
501.0591
505.7988
560.0398
592.7668
665.85
0.300007 0.519628 0.062339
424.3805
479.3863
512.0944
574.3856
608.5629
663.9078
0.300007 0.519628 0.124678
391.3396
440.1909
524.9261
599.1102
636.0155
660.1719
0.300007 0.519628 0.187017
361.4943
399.861
543.6729
611.2411
659.1277
662.1505
0.300007 0.519628 0.249356
344.9326
366.5236
565.4012
603.9
671.4799
673.1998
0.300007 0.519628 -0.311695
346.6862
346.6862
586.6482
586.6482
676.9901
676.9901
P	=	4999.78	V	=	81.65923	E	=	-654.94027772
0.0 0.0 0.0
-0.0
0.0
0.0
389.5526
389.5526
801.1568
0.0 0.0 0.062346
59.9001
59.9001
142.1851
384.582
384.582
793.6879
0.0 0.0 0.124693
117.821
117.821
278.5784
369.6273
369.6273
771.154
0.0 0.0 0.187039
172.5086
172.5086
344.8471
344.8471
403.8297
733.0253
0.0 0.0 0.249385
223.428
223.428
311.1061
311.1062
513.6292
678.2046
0.0 0.0 -0.311731
270.0348
270.0348
270.0348
270.0348
605.3307
605.3307
0.0 0.115474 0.0
111.5261
117.2074
253.5789
408.762
445.998
787.6867
0.0 0.115474 0.062346
132.3723
141.5136
280.8177
404.1735
440.8601
781.0828
0.0 0.115474 0.124693
168.3738
191.5472
353.7271
390.362
425.6053
761.1792
0.0 0.115474 0.187039
211.9847
239.1224
367.4699
400.1388
446.5575
727.5493
0.0 0.115474 0.249385
256.4455
284.583
336.3378
367.081
536.7925
679.3081
0.0 0.115474 -0.311731
298.6324
298.6324
327.7588
327.7588
615.5893
615.5893
0.0 0.230948 0.0
215.4008
216.6307
451.6795
461.8695
561.5144
749.1776
0.0 0.230948 0.062346
226.0575
227.7127
447.7532
474.9517
554.3842
746.4411
0.0 0.230948 0.124693
251.009
260.3985
435.9376
506.7449
536.7879
737.5668
0.0 0.230948 0.187039
284.7379
305.0663
416.3449
494.8018
563.3554
720.9111
0.0 0.230948 0.249385
321.4655
354.8587
389.6614
453.3549
612.8482
694.7256
0.0 0.230948 -0.311731
357.3389
357.3389
405.3986
405.3986
658.2524
658.2524
0.0 0.346423 0.0
285.5102
306.0149
494.0765
598.7908
667.3093
692.336
0.0 0.346423 0.062346
293.1606
308.905
490.4876
604.0655
644.74
711.1208
0.0 0.346423 0.124693
314.0544
320.4875
479.757
585.5646
644.4122
730.1509
0.0 0.346423 0.187039
343.4504
345.2149
462.0873
538.464
672.6212
739.3841
0.0 0.346423 0.249385
376.3707
383.5959
438.0618
485.4119
701.6986
737.4469
0.0 0.346423 -0.311731
408.8517
408.8517
432.0694
432.0694
724.4096
724.4096
0.0 0.461897 0.0
321.7764
378.0544
522.3124
631.7774
669.6276
731.695
0.0 0.461897 0.062346
328.6518
375.0322
518.7026
613.3779
681.6181
741.2997
0.0 0.461897 0.124693
347.8044
371.1401
508.0158
575.0771
706.1964
759.1322
0.0 0.461897 0.187039
375.4986
376.3316
490.6413
528.6112
733.5899
772.9654
0.0 0.461897 0.249385
397.1014
407.1865
467.2045
479.3747
757.0232
777.8666
0.0 0.461897 -0.311731
433.2417
433.2417
438.7615
438.7615
772.4206
772.4206
0.0 -0.577371 0.0
332.3023
411.2864
531.9871
600.3627
690.9394
751.6767
0.0 -0.577371 0.062346
338.9384
405.4243
528.3095
588.3126
700.8712
758.8145
0.0 -0.577371 0.124693
357.5799
394.4056
517.4693
557.6674
724.7324
773.7798
0.0 -0.577371 0.187039
384.8544
390.6018
499.9505
516.785
751.7567
786.84
0.0 -0.577371 0.249385
402.6223
416.3663
472.3541
476.4235
774.2128
792.387
0.0 -0.577371 -0.311731
431.6541
431.6541
447.9309
447.9309
788.2339
788.2339
0.100004 0.173211 0.0
188.8572
210.5815
384.2422
467.9195
520.0808
761.6424
0.100004 0.173211 0.062346
202.4824
219.9611
397.4974
467.9012
513.7344
757.2875
0.100004 0.173211 0.124693
236.8849
244.7036
418.0302
480.8837
495.132
743.9735
0.100004 0.173211 0.187039
277.8947
280.8661
411.8797
465.7566
527.9598
720.923
0.100004 0.173211 0.249385
313.168
325.2512
391.7081
428.5316
586.8962
687.0528
0.100004 0.173211 -0.311731
341.7896
341.7896
391.1285
391.1285
641.8567
641.8567
0.100004 0.288685 0.0
276.6517
299.1199
467.3134
575.0865
617.8521
713.5175
0.100004 0.288685 0.062346
277.8092
307.7537
471.0361
576.9863
608.1059
717.8167
0.100004 0.288685 0.124693
288.0746
328.8183
474.1105
562.4726
608.1447
724.158
0.100004 0.288685 0.187039
312.8946
356.33
466.5447
523.1465
634.89
724.4439
0.100004 0.288685 0.249385
349.0761
382.9437
449.9162
479.944
667.2149
715.1244
0.100004 0.288685 -0.311731
383.6967
383.6967
447.8097
447.8097
695.505
695.505
0.100004 0.40416 0.0
352.6724
355.3542
521.1229
644.7541
652.8815
701.2225
0.100004 0.40416 0.062346
343.1293
367.7632
520.4314
620.0195
664.5573
715.2148
0.100004 0.40416 0.124693
336.895
387.2146
513.2529
581.9489
683.8176
736.3275
0.100004 0.40416 0.187039
342.5098
411.222
492.7515
544.8786
708.3636
750.5884
0.100004 0.40416 0.249385
364.0374
425.187
470.5756
513.7331
731.5007
754.6256
0.100004 0.40416 -0.311731
397.8126
397.8126
485.9835
485.9835
747.8935
747.8935
0.100004 0.519634 0.0
375.8545
412.3027
548.2294
600.4814
677.5308
741.2853
0.100004 0.519634 0.062346
374.4827
412.759
540.1861
592.86
688.216
747.7051
0.100004 0.519634 0.124693
367.618
422.7566
515.7918
576.8647
712.5135
761.7034
0.100004 0.519634 0.187039
363.3419
443.3616
480.7486
556.7707
739.4537
774.353
0.100004 0.519634 0.249385
372.8809
434.6868
476.6944
532.5437
761.805
779.8512
0.100004 0.519634 -0.311731
398.617
398.617
504.9395
504.9395
775.7575
775.7575
0.200007 0.346423 0.0
347.5425
397.618
510.4604
647.5441
660.315
668.9838
0.200007 0.346423 0.062346
340.852
402.5777
519.0122
611.3085
671.1477
689.8095
0.200007 0.346423 0.124693
331.1409
415.5229
533.2965
565.7344
679.4509
715.9773
0.200007 0.346423 0.187039
333.3119
428.8395
523.0958
537.8835
695.4225
731.7249
0.200007 0.346423 0.249385
353.0984
420.9752
504.1814
529.8485
714.5312
736.1466
0.200007 0.346423 -0.311731
386.7873
386.7873
514.6755
514.6755
729.6869
729.6869
0.200007 0.461897 0.0
413.9443
456.5186
563.9035
600.6716
658.8961
716.4728
0.200007 0.461897 0.062346
399.9738
463.3175
560.4942
590.1609
675.654
719.334
0.200007 0.461897 0.124693
375.7601
471.7292
533.2829
595.2768
699.6053
729.3234
0.200007 0.461897 0.187039
359.8014
454.9412
526.1807
596.2457
720.2418
742.6111
0.200007 0.461897 0.249385
361.311
416.7261
544.4848
585.4962
737.7627
750.362
0.200007 0.461897 -0.311731
381.9684
381.9684
566.7048
566.7048
748.6952
748.6952
0.200007 0.577371 0.0
450.6727
473.5395
565.0902
592.8897
654.7042
731.5986
0.200007 0.577371 0.062346
429.9306
488.41
536.2691
611.4726
665.9035
733.9649
0.200007 0.577371 0.124693
399.2067
492.8072
509.6872
624.1046
691.679
741.4217
0.200007 0.577371 0.187039
375.3755
448.4048
533.9397
621.1405
719.4346
751.1535
0.200007 0.577371 0.249385
367.5501
408.5029
560.1206
606.806
741.389
756.8706
0.200007 0.577371 -0.311731
379.4548
379.4548
585.4211
585.4211
754.1194
754.1194
0.300011 0.519634 0.0
473.5271
539.7113
543.48
601.8521
637.2899
719.6588
0.300011 0.519634 0.062346
455.6338
514.9417
551.7661
617.4688
654.5966
717.4391
0.300011 0.519634 0.124693
420.7394
473.0047
565.5804
644.6
684.8523
713.0538
0.300011 0.519634 0.187039
389.2976
430.192
585.6424
658.3634
710.4249
714.623
0.300011 0.519634 0.249385
371.8719
394.8439
609.0603
650.7511
724.3971
726.0193
0.300011 0.519634 -0.311731
373.7863
373.7863
632.0791
632.0791
730.2791
730.2791
P	=	6000.01	V	=	77.84061	E	=	-654.79790667
0.0 0.0 0.0
-0.0
-0.0
0.0
413.4016
413.4016
856.5878
0.0 0.0 0.062346
63.5249
63.5249
151.3807
408.1768
408.1768
848.3436
0.0 0.0 0.124692
124.9314
124.9314
296.607
392.4051
392.4051
823.6042
0.0 0.0 0.187037
182.9179
182.9179
366.1508
366.1508
429.9979
782.1071
0.0 0.0 0.249383
236.9767
236.9767
330.2747
330.2747
547.004
722.9732
0.0 0.0 -0.311729
286.5491
286.5491
286.5491
286.5491
644.889
644.889
0.0 0.11548 0.0
118.5439
124.17
270.2021
433.791
473.0094
841.8095
0.0 0.11548 0.062346
140.2385
149.9283
299.4292
428.9398
467.5911
834.5719
0.0 0.11548 0.124692
178.3933
202.6138
377.2333
414.3105
451.4532
812.8476
0.0 0.11548 0.187037
224.6461
252.957
390.0016
424.3091
476.1014
776.3874
0.0 0.11548 0.249383
271.8652
301.1639
356.8787
389.0341
572.1833
724.4546
0.0 0.11548 -0.311729
316.739
316.739
347.0867
347.0867
656.2414
656.2414
0.0 0.230959 0.0
228.5556
229.7632
479.4282
492.0881
595.7461
799.638
0.0 0.230959 0.062346
239.6992
241.5627
475.2263
506.0213
588.2187
796.7302
0.0 0.230959 0.124692
266.0454
276.072
462.5963
539.0994
570.3503
787.2545
0.0 0.230959 0.187037
301.7526
323.1748
441.6894
524.2966
600.739
769.3812
0.0 0.230959 0.249383
340.728
375.6911
413.2595
480.1175
653.5427
741.2371
0.0 0.230959 -0.311729
378.8613
378.8613
429.1585
429.1585
702.1043
702.1043
0.0 0.346439 0.0
303.2851
324.1195
524.6847
637.4801
709.6413
737.5695
0.0 0.346439 0.062346
311.3063
327.4235
520.8142
642.4583
686.3105
757.649
0.0 0.346439 0.124692
333.2658
340.1417
509.2707
621.5553
687.0226
778.3643
0.0 0.346439 0.187037
364.2731
366.5668
490.3356
571.488
716.9587
788.4658
0.0 0.346439 0.249383
399.1195
407.2003
464.6872
515.1115
747.9617
786.3817
0.0 0.346439 -0.311729
433.5993
433.5993
458.5113
458.5113
772.3125
772.3125
0.0 0.461919 0.0
342.2958
400.0729
554.9768
671.6536
712.7179
779.7325
0.0 0.461919 0.062346
349.4821
397.2996
551.0841
651.9548
725.6426
790.0906
0.0 0.461919 0.124692
369.5425
394.0404
539.5771
611.2202
751.9369
809.4219
0.0 0.461919 0.187037
398.6509
400.1796
520.9226
561.9237
781.3131
824.3972
0.0 0.461919 0.249383
422.4137
432.0959
495.8564
509.6878
806.624
829.5595
0.0 0.461919 -0.311729
460.7514
460.7514
465.5684
465.5684
823.4399
823.4399
0.0 -0.577398 0.0
353.707
435.2391
565.3949
637.5458
735.488
801.5911
0.0 -0.577398 0.062346
360.6372
429.5209
561.4341
624.9023
745.9605
809.2974
0.0 -0.577398 0.124692
380.1387
418.8387
549.768
592.6746
771.3171
825.4842
0.0 -0.577398 0.187037
408.7638
415.5712
530.9518
549.5467
800.3599
839.5382
0.0 -0.577398 0.249383
428.6138
441.9801
502.5441
505.7712
824.8143
845.2754
0.0 -0.577398 -0.311729
459.4273
459.4273
475.4222
475.4222
840.37
840.37
0.100008 0.173219 0.0
200.4992
223.1191
408.806
497.5488
551.42
813.28
0.100008 0.173219 0.062346
214.7994
233.0335
422.7217
497.7991
544.6896
808.585
0.100008 0.173219 0.124692
250.9835
259.2143
443.6821
512.6243
524.9075
794.2373
0.100008 0.173219 0.187037
294.3909
297.3159
436.8039
493.5715
563.1179
769.4253
0.100008 0.173219 0.249383
331.826
344.1972
415.2656
453.8357
625.9442
733.0442
0.100008 0.173219 -0.311729
362.1217
362.1217
414.1262
414.1262
684.638
684.638
0.100008 0.288699 0.0
293.2073
317.1725
495.9542
612.4088
656.4007
760.6996
0.100008 0.288699 0.062346
294.5691
326.2684
499.7574
613.8458
646.7161
765.3841
0.100008 0.288699 0.124692
305.6067
348.5161
502.7954
596.6905
648.5806
772.362
0.100008 0.288699 0.187037
331.8455
377.6111
494.7021
554.8109
677.0734
772.7758
0.100008 0.288699 0.249383
369.9469
405.7198
477.1236
508.9752
711.4416
762.7528
0.100008 0.288699 -0.311729
406.4194
406.4194
474.9835
474.9835
741.6704
741.6704
0.100008 0.404179 0.0
374.434
376.17
553.0757
686.0391
694.6668
746.9326
0.100008 0.404179 0.062346
363.777
390.1264
552.2517
658.8963
708.1094
761.8124
0.100008 0.404179 0.124692
357.5229
410.8633
544.5215
618.2822
728.7622
784.6426
0.100008 0.404179 0.187037
363.7723
436.232
522.8762
578.8381
754.8695
800.1367
0.100008 0.404179 0.249383
386.5875
450.8807
499.7367
545.5807
779.5732
804.4916
0.100008 0.404179 -0.311729
422.1805
422.1805
516.0356
516.0356
797.1894
797.1894
0.100008 0.519658 0.0
399.445
436.3817
582.1058
637.7889
720.9719
790.3639
0.100008 0.519658 0.062346
397.609
437.6064
573.4268
629.9183
732.3116
797.2321
0.100008 0.519658 0.124692
390.2398
448.9971
547.4664
613.1842
758.2036
812.2734
0.100008 0.519658 0.187037
386.1375
470.8927
510.5394
591.7985
787.1427
825.8445
0.100008 0.519658 0.249383
396.4802
461.7469
506.4261
565.8863
811.4148
831.5636
0.100008 0.519658 -0.311729
423.7228
423.7228
536.425
536.425
826.8039
826.8039
0.200017 0.346439 0.0
367.9865
421.5757
541.4236
687.3885
702.815
713.8915
0.200017 0.346439 0.062346
361.1831
426.7562
550.3315
649.2373
716.1931
734.0616
0.200017 0.346439 0.124692
351.3833
440.2929
565.3133
600.8138
724.9458
762.4971
0.200017 0.346439 0.187037
353.9394
454.1905
555.739
570.2939
741.693
779.6975
0.200017 0.346439 0.249383
374.8386
446.0171
535.5664
562.0496
761.7783
784.5997
0.200017 0.346439 -0.311729
410.2586
410.2586
546.2701
546.2701
777.7907
777.7907
0.200017 0.461919 0.0
438.2261
484.4562
598.0738
638.1807
700.1809
764.115
0.200017 0.461919 0.062346
423.7692
491.5252
594.5468
626.7895
718.4507
766.9859
0.200017 0.461919 0.124692
398.7133
500.1111
566.4127
631.8143
744.6727
777.1972
0.200017 0.461919 0.187037
382.3266
482.4745
559.0429
632.9783
766.9969
791.1564
0.200017 0.461919 0.249383
384.1763
442.5135
578.3087
621.7382
785.7815
799.3966
0.200017 0.461919 -0.311729
406.0025
406.0025
601.86
601.86
797.5478
797.5478
0.200017 0.577398 0.0
477.2707
502.8089
599.7467
628.778
696.0759
779.982
0.200017 0.577398 0.062346
455.6247
518.5423
568.8562
649.0896
707.8786
782.3938
0.200017 0.577398 0.124692
423.5734
522.8556
541.2285
663.0215
735.2789
790.132
0.200017 0.577398 0.187037
398.9156
476.1316
567.0289
660.1022
765.1104
800.3637
0.200017 0.577398 0.249383
391.0279
434.24
594.9509
644.856
788.9764
806.2902
0.200017 0.577398 -0.311729
403.7045
403.7045
621.9978
621.9978
803.0239
803.0239
0.300025 0.519658 0.0
501.6751
573.3469
576.5992
638.3792
676.3279
767.235
0.300025 0.519658 0.062346
482.9203
546.1176
586.3177
655.0336
694.9083
764.7426
0.300025 0.519658 0.124692
446.4216
501.7812
600.9083
684.1935
727.5526
759.7061
0.300025 0.519658 0.187037
413.6991
456.8637
622.1451
699.4918
755.2856
760.7542
0.300025 0.519658 0.249383
395.7235
419.9184
647.1599
691.7807
770.8049
772.278
0.300025 0.519658 -0.311729
397.8876
397.8876
671.8476
671.8476
776.9958
776.9958
P	=	7000.08	V	=	74.652	E	=	-654.65729974
0.0 0.0 0.0
-0.0
-0.0
0.0
434.5542
434.5542
906.7531
0.0 0.0 0.062342
66.4339
66.4339
159.8935
429.125
429.125
897.8174
0.0 0.0 0.124684
130.7619
130.7619
313.1709
412.676
412.676
871.0851
0.0 0.0 0.187025
191.6987
191.6987
385.1446
385.1446
453.8277
826.4966
0.0 0.0 0.249367
248.7122
248.7122
347.3355
347.3355
577.1943
763.391
0.0 0.0 -0.311709
301.1182
301.1182
301.1182
301.1182
680.5782
680.5782
0.0 0.115485 0.0
124.8351
130.2507
285.2348
455.9895
497.0153
890.7515
0.0 0.115485 0.062342
147.0371
157.6438
316.1897
450.9193
491.3505
882.9625
0.0 0.115485 0.124684
186.9819
212.5548
398.4758
435.5932
474.432
859.623
0.0 0.115485 0.187025
235.5573
265.0957
410.036
445.8004
502.8528
820.5912
0.0 0.115485 0.249367
285.309
315.6728
375.102
408.4939
604.1919
765.2699
0.0 0.115485 -0.311709
332.697
332.697
364.1142
364.1142
692.9689
692.9689
0.0 0.23097 0.0
240.3551
241.3532
504.0495
519.4411
626.2687
845.1858
0.0 0.23097 0.062342
251.7371
254.1056
499.6066
534.067
618.3641
842.1654
0.0 0.23097 0.124684
279.3057
290.3282
486.2557
568.0929
600.3379
832.2194
0.0 0.23097 0.187025
316.746
339.4683
464.1653
550.55
634.3336
813.2669
0.0 0.23097 0.249367
357.7063
394.2447
434.1466
503.8912
690.2143
783.3083
0.0 0.23097 -0.311709
397.8646
397.8646
450.2518
450.2518
741.7016
741.7016
0.0 0.346455 0.0
319.225
340.3886
551.8557
672.4389
747.593
778.3322
0.0 0.346455 0.062342
327.5919
344.1224
547.7334
677.0277
723.6659
799.5567
0.0 0.346455 0.124684
350.5143
357.933
535.461
653.8452
725.3328
821.8109
0.0 0.346455 0.187025
382.9226
385.8711
515.3924
601.116
756.8023
832.7072
0.0 0.346455 0.249367
419.4068
428.4762
488.3065
541.7891
789.5671
830.4793
0.0 0.346455 -0.311709
455.589
455.589
482.2964
482.2964
815.4442
815.4442
0.0 0.46194 0.0
360.9888
419.9175
583.969
707.5498
751.6188
822.9491
0.0 0.46194 0.062342
368.4682
417.4005
579.8195
686.6902
765.3263
833.961
0.0 0.46194 0.124684
389.3498
414.7667
567.5775
643.7786
793.0609
854.6222
0.0 0.46194 0.187025
419.6666
421.8011
547.8036
591.9749
824.1751
870.6416
0.0 0.46194 0.249367
445.3823
454.5499
521.3579
537.104
851.2034
876.0655
0.0 0.46194 -0.311709
485.694
485.694
489.556
489.556
869.3361
869.3361
0.0 -0.577425 0.0
373.3381
456.8686
595.0411
670.9929
775.7116
846.5335
0.0 -0.577425 0.062342
380.5453
451.3168
590.8214
657.822
786.5956
854.725
0.0 -0.577425 0.124684
400.8218
441.005
578.4158
624.1879
813.1711
871.9774
0.0 -0.577425 0.187025
430.5892
438.2775
558.4788
579.0918
843.9852
886.931
0.0 -0.577425 0.249367
452.2744
465.1756
529.8705
531.9294
870.2811
892.8632
0.0 -0.577425 -0.311709
484.667
484.667
500.0975
500.0975
887.2723
887.2723
0.100013 0.173227 0.0
210.9385
234.0771
430.994
523.9584
579.3458
859.9149
0.100013 0.173227 0.062342
225.9863
244.4414
445.4229
524.4591
572.2675
854.9509
0.100013 0.173227 0.124684
263.8334
271.8439
466.6007
541.0355
551.4281
839.7379
0.100013 0.173227 0.187025
308.7389
312.108
458.9006
518.3445
594.7639
813.3569
0.100013 0.173227 0.249367
348.1001
361.0653
436.0273
476.3512
661.1905
774.6695
0.100013 0.173227 -0.311709
380.0013
380.0013
434.4949
434.4949
723.3085
723.3085
0.100013 0.288712 0.0
308.0694
333.0923
521.5897
645.9252
690.9475
803.2448
0.100013 0.288712 0.062342
309.6811
342.6078
525.4175
646.8483
681.3948
808.3148
0.100013 0.288712 0.124684
321.4961
365.8893
528.3235
627.3432
684.8816
815.9273
0.100013 0.288712 0.187025
348.9904
396.3226
519.6694
583.1818
715.0037
816.4787
0.100013 0.288712 0.249367
388.7235
425.7171
501.2602
534.9092
751.2902
805.7959
0.100013 0.288712 -0.311709
426.633
426.633
499.1089
499.1089
783.3387
783.3387
0.100013 0.404197 0.0
393.938
394.903
581.4951
723.2193
732.3108
788.0194
0.100013 0.404197 0.062342
382.3608
410.2028
580.5345
693.9019
747.353
803.6898
0.100013 0.404197 0.124684
376.1711
432.0417
572.319
650.9846
769.2234
828.0915
0.100013 0.404197 0.187025
383.0489
458.5168
549.828
609.2649
796.7185
844.7394
0.100013 0.404197 0.249367
407.0441
473.7774
525.947
573.9231
822.854
849.4113
0.100013 0.404197 -0.311709
444.1988
444.1988
542.7752
542.7752
841.597
841.597
0.100013 0.519682 0.0
420.8473
458.112
612.1376
671.3773
760.1708
834.4893
0.100013 0.519682 0.062342
418.5577
460.106
602.9272
663.2599
772.0474
841.7469
0.100013 0.519682 0.124684
410.7621
472.7784
575.7154
645.7473
799.2898
857.7195
0.100013 0.519682 0.187025
406.8835
495.7259
537.332
623.0775
829.9954
872.1444
0.100013 0.519682 0.249367
417.9966
486.1873
533.1738
595.6154
856.0209
878.0926
0.100013 0.519682 -0.311709
446.5602
446.5602
564.5678
564.5678
872.7349
872.7349
0.200026 0.346455 0.0
386.372
442.7014
569.2516
723.0443
741.1209
754.2825
0.200026 0.346455 0.062342
379.4951
448.0732
578.4282
683.3018
756.6907
773.8942
0.200026 0.346455 0.124684
369.6684
462.0998
593.8784
632.4544
765.8479
804.4316
0.200026 0.346455 0.187025
372.6166
476.4797
585.2808
598.9896
783.3601
822.9996
0.200026 0.346455 0.249367
394.5402
468.3209
563.6533
590.4192
804.4024
828.3619
0.200026 0.346455 -0.311709
431.4534
431.4534
574.1705
574.1705
821.2303
821.2303
0.200026 0.46194 0.0
460.1182
509.3918
628.5848
671.9976
737.2202
806.8632
0.200026 0.46194 0.062342
445.2166
516.696
625.0114
659.7874
756.8828
809.752
0.200026 0.46194 0.124684
419.4378
525.3674
596.3524
664.4805
785.1954
820.2178
0.200026 0.46194 0.187025
402.7383
507.1499
588.6559
665.6146
809.0939
834.8468
0.200026 0.46194 0.249367
404.9693
465.8675
608.5068
653.842
829.0457
843.5645
0.200026 0.46194 -0.311709
427.8702
427.8702
633.0544
633.0544
841.5653
841.5653
0.200026 0.577425 0.0
501.2889
529.1321
630.9906
660.5778
733.3545
823.3145
0.200026 0.577425 0.062342
478.7905
545.7283
598.0732
682.6415
745.686
825.7793
0.200026 0.577425 0.124684
445.5998
549.8444
569.7083
697.7432
774.5199
833.8224
0.200026 0.577425 0.187025
420.2937
501.1681
596.8212
694.7943
806.1918
844.5675
0.200026 0.577425 0.249367
412.4247
457.6158
626.1493
678.7075
831.7574
850.7107
0.200026 0.577425 -0.311709
425.8083
425.8083
654.6066
654.6066
846.9835
846.9835
0.300039 0.519682 0.0
527.088
603.4635
606.4926
671.0871
711.2167
809.7071
0.300039 0.519682 0.062342
507.5376
574.1099
617.4309
688.7174
731.0175
806.9764
0.300039 0.519682 0.124684
469.6219
527.6967
632.7383
719.6728
765.8973
801.4139
0.300039 0.519682 0.187025
435.8222
481.0164
654.9854
736.1589
795.5863
802.1517
0.300039 0.519682 0.249367
417.4204
442.727
681.3108
728.3028
812.4822
813.7997
0.300039 0.519682 -0.311709
419.8422
419.8422
707.3429
707.3429
818.9157
818.9157
P	=	8000.16	V	=	71.92349	E	=	-654.51839477
0.0 0.0 0.0
-0.0
0.0
0.0
453.7782
453.7782
952.5824
0.0 0.0 0.062332
69.4107
69.4107
167.5795
448.1912
448.1912
943.0068
0.0 0.0 0.124664
136.5769
136.5769
328.1644
431.1866
431.1866
914.4375
0.0 0.0 0.186996
200.1836
200.1836
402.5461
402.5461
475.4668
867.014
0.0 0.0 0.249328
259.7555
259.7555
363.021
363.021
604.6828
800.2742
0.0 0.0 -0.31166
314.6103
314.6103
314.6103
314.6103
713.1256
713.1256
0.0 0.115495 0.0
130.5269
135.7812
298.7201
476.1971
518.6585
935.4233
0.0 0.115495 0.062332
153.3313
164.5412
331.407
470.9499
512.823
927.1377
0.0 0.115495 0.124664
195.0571
221.5834
417.8829
455.0357
495.3186
902.3323
0.0 0.115495 0.186996
245.7783
276.3043
428.3777
465.4299
527.256
860.9419
0.0 0.115495 0.249328
297.7741
329.0889
391.8145
426.3454
633.3432
802.493
0.0 0.115495 -0.31166
347.3819
347.3819
379.7948
379.7948
726.4268
726.4268
0.0 0.230989 0.0
251.0147
251.9856
526.5166
544.0652
653.7606
886.6641
0.0 0.230989 0.062332
262.7937
265.4591
521.8678
559.4207
645.6084
883.5732
0.0 0.230989 0.124664
291.4961
303.2761
507.8853
594.2943
627.8221
873.248
0.0 0.230989 0.186996
330.5061
354.2903
484.7265
574.4703
665.0928
853.3076
0.0 0.230989 0.249328
373.2483
411.137
453.2489
525.6109
723.6847
821.6438
0.0 0.230989 -0.31166
415.2396
415.2396
469.4951
469.4951
777.7672
777.7672
0.0 0.346484 0.0
333.9361
355.0491
576.7132
704.0609
782.1981
815.356
0.0 0.346484 0.062332
342.6127
359.2368
572.3721
708.2869
757.8328
837.7058
0.0 0.346484 0.124664
366.3904
374.1344
559.4533
683.2044
760.4251
861.4519
0.0 0.346484 0.186996
400.0357
403.4365
538.351
628.1449
793.2814
873.0952
0.0 0.346484 0.249328
437.9771
447.7603
509.931
566.0828
827.5702
870.6983
0.0 0.346484 -0.31166
475.7054
475.7054
503.8668
503.8668
854.7723
854.7723
0.0 0.461979 0.0
378.2703
437.744
610.5762
740.108
787.1678
862.7059
0.0 0.461979 0.062332
386.0226
435.5214
606.2051
718.2695
801.5979
874.3092
0.0 0.461979 0.124664
407.65
433.562
593.3126
673.4843
830.6536
896.1733
0.0 0.461979 0.186996
439.0362
441.4344
572.5148
619.4326
863.3014
913.0692
0.0 0.461979 0.249328
466.1991
475.1883
544.7825
562.0873
891.8347
918.5885
0.0 0.461979 -0.31166
508.3249
508.3249
511.578
511.578
911.185
911.185
0.0 -0.577473 0.0
391.4871
476.2576
622.2906
701.3386
812.6732
887.9944
0.0 -0.577473 0.062332
398.9616
470.9149
617.8485
687.749
823.8916
896.6368
0.0 -0.577473 0.124664
419.9604
461.0413
604.7897
652.9516
851.4707
914.8463
0.0 -0.577473 0.186996
450.7481
458.8463
583.8266
606.1163
883.7711
930.5101
0.0 -0.577473 0.249328
473.7114
486.5404
554.8114
555.998
911.6746
936.4241
0.0 -0.577473 -0.31166
507.5964
507.5964
522.7925
522.7925
930.0314
930.0314
0.100021 0.173242 0.0
220.378
244.0611
450.9168
548.0782
604.4054
902.4136
0.100021 0.173242 0.062332
236.0978
254.8811
465.8947
548.8606
597.0874
897.2307
0.100021 0.173242 0.124664
275.4745
283.4731
487.3993
567.1149
575.4589
881.2685
0.100021 0.173242 0.186996
321.957
325.5515
479.0595
540.9366
623.7419
853.4469
0.100021 0.173242 0.249328
363.0366
376.4176
455.0271
496.9485
693.3412
812.6003
0.100021 0.173242 -0.31166
396.3262
396.3262
453.1499
453.1499
758.5185
758.5185
0.100021 0.288737 0.0
321.4955
347.6612
544.7599
676.3127
722.3543
841.9243
0.100021 0.288737 0.062332
323.4028
357.57
548.6448
676.686
713.1397
847.3815
0.100021 0.288737 0.124664
335.9877
381.8277
551.4968
655.1686
718.23
855.6363
0.100021 0.288737 0.186996
364.5653
413.4826
542.387
609.0492
749.8024
856.3255
0.100021 0.288737 0.249328
405.7061
444.0005
523.2348
558.5397
787.7131
845.0094
0.100021 0.288737 -0.31166
444.987
444.987
521.0666
521.0666
821.3135
821.3135
0.100021 0.404231 0.0
411.7979
411.8358
607.386
757.048
766.4709
825.7714
0.100021 0.404231 0.062332
399.2842
428.5547
606.3102
725.726
783.1955
842.0751
0.100021 0.404231 0.124664
393.2126
451.4709
597.6785
680.7965
806.2831
867.8762
0.100021 0.404231 0.186996
400.6001
478.9738
574.4074
637.0167
835.0142
885.5282
0.100021 0.404231 0.249328
425.5489
494.7419
549.7512
599.7381
862.3577
890.4
0.100021 0.404231 -0.31166
464.1499
464.1499
567.1002
567.1002
882.0738
882.0738
0.100021 0.519726 0.0
440.5065
477.6665
639.6475
701.8555
796.1229
875.1956
0.100021 0.519726 0.062332
437.7578
480.5049
629.9574
693.5936
808.4517
882.8065
0.100021 0.519726 0.124664
429.551
494.5053
601.6238
675.4778
836.8445
899.5942
0.100021 0.519726 0.186996
425.7995
518.4663
561.8613
651.6592
869.0565
914.6763
0.100021 0.519726 0.249328
437.494
508.505
557.555
622.7426
896.6112
920.6399
0.100021 0.519726 -0.31166
467.261
467.261
590.2154
590.2154
914.575
914.575
0.200043 0.346484 0.0
403.004
462.0041
594.3432
755.4185
775.8945
791.4704
0.200043 0.346484 0.062332
396.1611
467.5763
603.7594
714.2811
794.0084
810.1067
0.200043 0.346484 0.124664
386.4153
482.0938
619.658
661.3312
803.5611
842.6192
0.200043 0.346484 0.186996
389.6076
496.9189
612.224
624.9464
821.6756
862.4414
0.200043 0.346484 0.249328
412.2638
488.6254
589.1863
616.1339
843.3963
868.1957
0.200043 0.346484 -0.31166
450.5311
450.5311
599.4983
599.4983
860.8102
860.8102
0.200043 0.461979 0.0
479.939
532.1544
656.3366
702.6899
771.1054
846.3089
0.200043 0.461979 0.062332
464.768
539.6883
652.7307
689.815
791.9842
849.2118
0.200043 0.461979 0.124664
438.4548
548.514
623.6798
694.1506
822.2252
859.8203
0.200043 0.461979 0.186996
421.329
529.7418
615.6223
695.2393
847.5462
874.8602
0.200043 0.461979 0.249328
423.622
486.9924
635.9365
682.965
868.4568
883.829
0.200043 0.461979 -0.31166
447.4224
447.4224
661.3457
661.3457
881.6097
881.6097
0.200043 0.577473 0.0
523.0239
553.1631
659.3719
689.6802
767.5498
863.2928
0.200043 0.577473 0.062332
499.9229
570.5043
624.7862
713.2405
780.3041
865.803
0.200043 0.577473 0.124664
465.8117
574.6305
595.6822
729.4034
810.3298
874.0673
0.200043 0.577473 0.186996
439.7645
524.068
623.951
726.4025
843.5624
885.1193
0.200043 0.577473 0.249328
431.6006
478.704
654.4813
709.4754
870.5977
891.2402
0.200043 0.577473 -0.31166
445.5171
445.5171
684.192
684.192
886.9284
886.9284
0.300064 0.519726 0.0
550.1628
630.9101
633.6497
701.0545
743.2463
848.8091
0.300064 0.519726 0.062332
530.0547
599.7198
645.7708
719.4815
764.0675
845.8634
0.300064 0.519726 0.124664
490.9822
551.5268
661.7324
751.9728
800.8985
839.7855
0.300064 0.519726 0.186996
455.9881
503.0648
684.8336
769.5011
832.2728
840.0637
0.300064 0.519726 0.249328
436.767
463.1443
712.2729
761.4737
850.4008
851.4851
0.300064 0.519726 -0.31166
439.2274
439.2274
739.5171
739.5171
856.932
856.932
P	=	8999.9	V	=	69.54863	E	=	-654.38133176
0.0 0.0 0.0
-0.0
-0.0
0.0
471.6164
471.6164
995.2363
0.0 0.0 0.062322
72.0299
72.0299
174.7397
465.8794
465.8794
985.0247
0.0 0.0 0.124644
141.7764
141.7764
342.1492
448.36
448.36
954.665
0.0 0.0 0.186965
207.9166
207.9166
418.7106
418.7106
495.6605
904.5616
0.0 0.0 0.249287
269.9666
269.9666
377.6203
377.6203
630.3059
834.4801
0.0 0.0 -0.311609
327.1658
327.1658
327.1658
327.1658
743.386
743.386
0.0 0.115502 0.0
135.7993
140.841
311.1651
494.8796
538.6317
976.9841
0.0 0.115502 0.062322
159.0546
170.8915
345.4452
489.4638
532.6207
968.2043
0.0 0.115502 0.124644
202.3802
229.7936
435.8594
473.0004
514.549
941.9719
0.0 0.115502 0.186965
255.1054
286.5043
445.3302
483.5132
549.9474
898.3582
0.0 0.115502 0.249287
309.2388
341.4076
407.2702
442.8223
660.4813
837.0355
0.0 0.115502 -0.311609
360.9499
360.9499
394.2721
394.2721
757.5341
757.5341
0.0 0.231004 0.0
260.9259
261.6881
547.2099
566.7813
679.0282
925.2235
0.0 0.231004 0.062322
272.8758
275.9784
542.3652
582.7769
670.6183
922.0445
0.0 0.231004 0.124644
302.6066
315.1839
527.787
618.3364
653.0977
911.3196
0.0 0.231004 0.186965
343.0655
367.8836
503.6302
596.421
693.4804
890.4318
0.0 0.231004 0.249287
387.4712
426.6798
470.7954
545.5974
754.6908
857.1926
0.0 0.231004 -0.311609
431.1766
431.1766
487.2407
487.2407
811.2208
811.2208
0.0 0.346506 0.0
347.4233
368.7548
599.5962
733.2467
814.0356
849.7552
0.0 0.346506 0.062322
356.3786
373.3243
595.0451
737.1107
789.3038
873.0422
0.0 0.346506 0.124644
380.9342
389.1431
581.5126
710.2745
792.6792
898.1061
0.0 0.346506 0.186965
415.7191
419.6632
559.4439
653.0608
826.8679
910.4236
0.0 0.346506 0.249287
455.0122
465.605
529.79
588.5339
862.6576
907.8908
0.0 0.346506 -0.311609
494.1724
494.1724
523.8458
523.8458
891.1437
891.1437
0.0 0.462008 0.0
394.2665
454.5024
635.0582
770.3429
820.0793
899.2856
0.0 0.462008 0.062322
402.2607
452.5165
630.4696
747.5376
835.1206
911.4551
0.0 0.462008 0.124644
424.5607
451.103
616.9553
700.9206
865.3127
934.4545
0.0 0.462008 0.186965
456.9278
459.6985
595.2155
644.7554
899.3663
952.2017
0.0 0.462008 0.249287
485.547
494.2439
566.3328
585.1762
929.3434
957.8652
0.0 0.462008 -0.311609
529.3165
529.3165
531.8816
531.8816
949.8594
949.8594
0.0 -0.57751 0.0
408.3695
494.5418
647.3517
729.4926
846.9439
926.139
0.0 -0.57751 0.062322
416.079
489.3632
642.6886
715.4487
858.4221
935.2061
0.0 -0.57751 0.124644
437.7252
479.8275
629.0035
679.4587
886.8439
954.319
0.0 -0.57751 0.186965
469.4453
478.0646
607.1058
630.9733
920.4902
970.6858
0.0 -0.57751 0.249287
493.6844
506.3339
577.8143
578.1581
949.9105
976.6491
0.0 -0.57751 -0.311609
528.8623
528.8623
543.7626
543.7626
969.5503
969.5503
0.100028 0.173253 0.0
229.1433
253.1012
469.3624
570.244
627.482
941.9303
0.100028 0.173253 0.062322
245.4572
264.32
484.8229
571.2742
619.9167
936.521
0.100028 0.173253 0.124644
286.1767
293.9819
506.5807
591.1053
597.5236
919.8165
0.100028 0.173253 0.186965
333.9465
337.8944
497.579
561.6911
650.5397
890.6319
0.100028 0.173253 0.249287
376.6634
390.572
472.4504
515.9255
723.1739
847.7957
0.100028 0.173253 -0.311609
411.3143
411.3143
470.3353
470.3353
791.2122
791.2122
0.100028 0.288755 0.0
334.0166
360.841
566.1535
704.2509
751.3055
877.8718
0.100028 0.288755 0.062322
336.1518
371.1059
570.0624
704.0991
742.3927
883.6561
0.100028 0.288755 0.124644
349.3883
396.2333
572.8099
680.8048
748.8711
892.4457
0.100028 0.288755 0.186965
378.9623
429.0177
563.2472
632.8976
781.8652
893.2252
0.100028 0.288755 0.249287
421.4297
460.6393
543.4426
580.3591
821.377
881.3199
0.100028 0.288755 -0.311609
461.8824
461.8824
541.3036
541.3036
856.4702
856.4702
0.100028 0.404257 0.0
427.6332
428.1767
631.2225
788.3138
798.2184
860.5024
0.100028 0.404257 0.062322
414.9894
445.4142
630.0244
755.2185
816.2772
877.4635
0.100028 0.404257 0.124644
409.0334
469.2199
621.0073
708.3451
840.4199
904.5899
0.100028 0.404257 0.186965
416.9193
497.6238
597.1031
662.5949
870.3039
923.1901
0.100028 0.404257 0.249287
442.7954
513.9399
571.8132
623.5026
898.8217
928.2768
0.100028 0.404257 -0.311609
482.6779
482.6779
589.5165
589.5165
919.4817
919.4817
0.100028 0.519759 0.0
458.6228
496.0702
664.9293
730.1701
829.4433
912.6106
0.100028 0.519759 0.062322
455.5096
499.5813
654.8153
721.6749
842.1542
920.5663
0.100028 0.519759 0.124644
447.0224
514.6323
625.479
702.8477
871.5442
938.1402
0.100028 0.519759 0.186965
443.4546
539.435
584.526
677.917
905.1205
953.8765
0.100028 0.519759 0.249287
455.7446
529.1628
580.1052
647.6948
934.104
959.9137
0.100028 0.519759 -0.311609
486.5857
486.5857
613.8672
613.8672
953.2306
953.2306
0.200055 0.346506 0.0
418.5679
479.3857
617.555
785.3644
808.2277
825.6121
0.200055 0.346506 0.062322
411.7131
485.1167
627.1591
742.9765
828.2708
843.6987
0.200055 0.346506 0.124644
401.9898
500.053
643.3914
688.0904
838.2133
877.9878
0.200055 0.346506 0.186965
405.4467
515.3442
637.2353
648.7784
856.9522
898.9394
0.200055 0.346506 0.249287
428.8544
507.2318
612.7996
639.7365
879.3833
905.0441
0.200055 0.346506 -0.311609
468.3114
468.3114
622.7892
622.7892
897.3993
897.3993
0.200055 0.462008 0.0
498.5344
552.8634
681.8946
731.2641
802.4644
882.5044
0.200055 0.462008 0.062322
483.0299
560.6068
678.323
717.6467
824.4675
885.4514
0.200055 0.462008 0.124644
456.1679
569.5469
649.0068
721.4742
856.4246
896.2816
0.200055 0.462008 0.186965
438.7442
550.4765
640.5213
722.449
883.027
911.7754
0.200055 0.462008 0.249287
441.2531
506.6956
661.1768
709.7101
904.8407
921.0135
0.200055 0.462008 -0.311609
465.8893
465.8893
687.3489
687.3489
918.5986
918.5986
0.200055 0.57751 0.0
543.4411
575.1824
685.8038
716.3809
799.2096
899.9551
0.200055 0.57751 0.062322
519.6276
593.3122
649.5015
741.4176
812.3566
902.5302
0.200055 0.57751 0.124644
484.6246
597.5111
619.5998
758.4974
843.4668
911.0528
0.200055 0.57751 0.186965
458.0204
545.3093
648.9307
755.4084
878.1153
922.4481
0.200055 0.57751 0.249287
449.7887
498.5133
680.5553
737.7222
906.4905
928.612
0.200055 0.57751 -0.311609
464.2419
464.2419
711.3888
711.3888
923.8136
923.8136
0.300083 0.519759 0.0
571.7862
656.0441
659.0064
728.6322
772.7628
884.6232
0.300083 0.519759 0.062322
551.057
623.4069
671.8785
747.8421
794.5782
881.4836
0.300083 0.519759 0.124644
510.8493
573.553
688.4142
781.7511
833.2328
874.9606
0.300083 0.519759 0.186965
474.9148
523.6111
712.2801
800.1428
866.1657
874.9261
0.300083 0.519759 0.249287
455.2245
482.4975
740.7033
791.8855
885.3857
886.3122
0.300083 0.519759 -0.311609
457.8304
457.8304
769.0205
769.0205
892.0592
892.0592
P	=	9999.72	V	=	67.44989	E	=	-654.24592219
0.0 0.0 0.0
-0.0
-0.0
0.0
488.0564
488.0564
1035.0659
0.0 0.0 0.06231
74.5747
74.5747
181.4828
482.2091
482.2091
1024.2901
0.0 0.0 0.12462
146.7566
146.7566
355.3211
464.2714
464.2714
992.3309
0.0 0.0 0.18693
215.2058
215.2058
433.725
433.725
514.6837
939.8034
0.0 0.0 0.249239
279.4874
279.4875
391.183
391.183
654.4445
866.6513
0.0 0.0 -0.311549
338.828
338.828
338.828
338.828
771.8811
771.8811
0.0 0.115511 0.0
140.7146
145.5172
322.7459
512.1096
556.9894
1015.7901
0.0 0.115511 0.06231
164.385
176.9455
358.4902
506.5567
550.8439
1006.5781
0.0 0.115511 0.12462
209.2362
237.6248
452.6201
489.6226
532.301
979.0865
0.0 0.115511 0.18693
263.8057
296.0656
461.038
500.2253
571.2147
933.4787
0.0 0.115511 0.249239
319.8791
352.7999
421.5892
458.0227
685.9992
869.5247
0.0 0.115511 -0.311549
373.5162
373.5162
407.6059
407.6059
786.8146
786.8146
0.0 0.231022 0.0
270.1818
270.7183
566.3002
587.9668
702.2726
961.2231
0.0 0.231022 0.06231
282.2686
285.8673
561.2767
604.5333
693.6629
957.9816
0.0 0.231022 0.12462
312.9627
326.4552
546.1518
640.5467
676.6147
946.9326
0.0 0.231022 0.18693
354.7459
380.7
521.0741
616.6822
719.9567
925.208
0.0 0.231022 0.249239
400.6506
441.1897
486.9896
564.0617
783.6621
890.5087
0.0 0.231022 -0.311549
445.9029
445.9029
503.6821
503.6821
842.5423
842.5423
0.0 0.346533 0.0
360.0615
381.584
620.69
760.3925
843.6596
881.8742
0.0 0.346533 0.06231
369.29
386.5445
615.943
763.8279
818.7523
905.9879
0.0 0.346533 0.12462
394.5823
403.2955
601.8397
735.3847
822.8807
932.2754
0.0 0.346533 0.18693
430.396
434.9943
578.8808
676.265
858.2278
945.2145
0.0 0.346533 0.249239
470.8669
482.4237
548.1118
609.5176
895.3508
942.5328
0.0 0.346533 -0.311549
511.2672
511.2672
542.594
542.594
925.008
925.008
0.0 0.462044 0.0
409.3189
470.2215
657.6109
798.5804
850.6925
933.6122
0.0 0.462044 0.06231
417.5663
468.4721
652.8272
774.8702
866.3463
946.2931
0.0 0.462044 0.12462
440.5283
467.6074
638.7521
726.5913
897.6091
970.3168
0.0 0.462044 0.18693
473.7759
476.9156
616.1606
668.5174
932.9402
988.7916
0.0 0.462044 0.249239
503.7935
512.0659
586.2555
606.8972
964.2331
994.4968
0.0 0.462044 -0.311549
549.0977
549.0977
550.7367
550.7367
985.8546
985.8546
0.0 -0.577554 0.0
424.2774
511.7088
670.4331
755.7861
878.8585
962.0231
0.0 -0.577554 0.06231
432.2409
506.6873
665.5773
741.3475
890.5724
971.4884
0.0 -0.577554 0.12462
454.5378
497.4802
651.3386
704.3144
919.7535
991.4238
0.0 -0.577554 0.18693
487.0942
496.1397
628.6052
654.3563
954.6203
1008.3655
0.0 -0.577554 0.249239
512.4885
524.8826
598.6689
599.4934
985.4538
1014.2418
0.0 -0.577554 -0.311549
548.9039
548.9039
563.2656
563.2656
1006.3573
1006.3573
0.100035 0.173266 0.0
237.3247
261.4641
486.5115
590.7853
648.6609
978.8246
0.100035 0.173266 0.06231
254.279
273.0678
502.3776
592.0736
640.896
973.2283
0.100035 0.173266 0.12462
296.3394
303.7394
524.3045
613.4377
617.8514
955.8919
0.100035 0.173266 0.18693
345.0629
349.5199
514.6819
580.837
675.5485
925.5008
0.100035 0.173266 0.249239
389.2589
403.7256
488.5428
533.4288
751.1023
880.8374
0.100035 0.173266 -0.311549
425.1403
425.1403
486.2096
486.2096
821.8894
821.8894
0.100035 0.288777 0.0
345.728
373.095
585.9024
730.1652
778.1703
911.4361
0.100035 0.288777 0.06231
348.1227
383.7049
589.8101
729.4275
769.6946
917.5145
0.100035 0.288777 0.12462
362.0417
409.6622
592.429
704.4973
777.536
926.7999
0.100035 0.288777 0.18693
392.5433
443.48
582.4589
655.0107
811.8152
927.6681
0.100035 0.288777 0.249239
436.1368
476.0559
562.1338
600.6503
852.7841
915.205
0.100035 0.288777 -0.311549
477.5201
477.5201
560.1443
560.1443
889.2645
889.2645
0.100035 0.404288 0.0
442.4762
443.4481
653.1667
817.3178
827.8728
893.0233
0.100035 0.404288 0.06231
429.7336
461.1936
651.8527
782.6462
847.1828
910.5367
0.100035 0.404288 0.12462
423.9417
485.8594
642.4923
733.9972
872.3378
938.8462
0.100035 0.404288 0.18693
432.3104
515.0914
618.0823
686.4222
903.2496
958.2873
0.100035 0.404288 0.249239
459.0009
531.8197
592.3758
645.6305
932.7899
963.5329
0.100035 0.404288 -0.311549
499.9779
499.9779
610.4203
610.4203
954.2895
954.2895
0.100035 0.519799 0.0
475.6041
513.3452
688.189
756.6268
860.4426
947.7537
0.100035 0.519799 0.06231
472.1961
517.4748
677.7471
747.8661
873.5163
956.0348
0.100035 0.519799 0.12462
463.4938
533.5236
647.6085
728.3074
903.829
974.3207
0.100035 0.519799 0.18693
460.087
559.1202
605.652
702.324
938.6483
990.5879
0.100035 0.519799 0.249239
472.8957
548.4819
601.2115
670.91
968.952
996.5749
0.100035 0.519799 -0.311549
504.6971
504.6971
635.9291
635.9291
989.2098
989.2098
0.200071 0.346533 0.0
433.1532
495.5247
638.9584
812.9676
838.4334
857.6319
0.200071 0.346533 0.06231
426.3152
501.4268
648.7132
769.5818
860.4214
874.9297
0.200071 0.346533 0.12462
416.6748
516.7846
665.2118
712.9674
870.7421
910.8489
0.200071 0.346533 0.18693
420.4061
532.48
660.5628
670.6985
890.0052
932.8487
0.200071 0.346533 0.249239
444.4544
524.4879
634.864
661.529
912.9833
939.2934
0.200071 0.346533 -0.311549
484.8976
484.8976
644.4291
644.4291
931.4593
931.4593
0.200071 0.462044 0.0
515.9828
572.1166
705.4763
757.9845
831.5148
916.4148
0.200071 0.462044 0.06231
500.1708
580.0857
702.0137
743.5468
854.615
919.4189
0.200071 0.462044 0.12462
472.8296
589.1862
672.5754
746.7291
888.238
930.4273
0.200071 0.462044 0.18693
455.1592
569.8374
663.7462
747.5739
916.0856
946.2272
0.200071 0.462044 0.249239
457.8547
525.1154
684.6908
734.4573
938.7106
955.6238
0.200071 0.462044 -0.311549
483.2128
483.2128
711.4913
711.4913
952.9999
952.9999
0.200071 0.577554 0.0
562.6066
595.6857
710.534
740.9931
828.6528
934.254
0.200071 0.577554 0.06231
538.1186
614.5731
672.5596
767.4731
842.1736
936.9146
0.200071 0.577554 0.12462
502.3036
618.8904
641.9118
785.3906
874.2864
945.696
0.200071 0.577554 0.18693
475.1996
565.1966
672.23
782.2435
910.22
957.3511
0.200071 0.577554 0.249239
466.9053
517.0942
704.8314
763.8995
939.823
963.4477
0.200071 0.577554 -0.311549
481.8387
481.8387
736.6475
736.6475
958.1048
958.1048
0.300106 0.519799 0.0
592.0734
679.3301
682.7569
754.2729
800.1575
917.9696
0.300106 0.519799 0.06231
570.7483
645.543
696.1155
774.2182
822.9294
914.6702
0.300106 0.519799 0.12462
529.489
594.163
713.1833
809.4036
863.2889
907.7822
0.300106 0.519799 0.18693
492.717
542.8702
737.7628
828.5283
897.6482
907.4718
0.300106 0.519799 0.249239
472.6178
500.6823
767.0816
820.0594
917.9579
918.6431
0.300106 0.519799 -0.311549
475.3507
475.3507
796.3712
796.3712
924.6878
924.6878
P	=	10999.91	V	=	65.57446	E	=	-654.11215698
0.0 0.0 0.0
-0.0
0.0
0.0
503.4891
503.4891
1072.599
0.0 0.0 0.062296
76.8408
76.8408
187.7405
497.5394
497.5394
1061.2704
0.0 0.0 0.124591
151.2392
151.2392
367.6033
479.2112
479.2112
1027.7656
0.0 0.0 0.186887
221.8603
221.8603
447.8203
447.8203
532.5166
972.9431
0.0 0.0 0.249182
288.294
288.294
403.897
403.897
677.1542
896.9244
0.0 0.0 -0.311478
349.712
349.712
349.712
349.712
798.7153
798.7153
0.0 0.115521 0.0
145.3607
149.874
333.4748
528.2554
574.1493
1052.3554
0.0 0.115521 0.062296
169.3099
182.5452
370.6429
522.5707
567.8829
1042.7272
0.0 0.115521 0.124591
215.5263
244.8338
468.3074
505.1877
548.9138
1014.031
0.0 0.115521 0.186887
271.8079
304.948
475.7352
515.8895
591.1548
966.5319
0.0 0.115521 0.249182
329.7294
363.4612
434.9657
472.2878
709.9687
900.0941
0.0 0.115521 -0.311478
385.216
385.216
420.1207
420.1207
814.3514
814.3514
0.0 0.231042 0.0
278.871
279.1949
584.1864
607.7257
723.9954
995.1567
0.0 0.231042 0.062296
291.0613
295.1628
578.9885
624.8603
715.2152
991.8605
0.0 0.231042 0.124591
322.6134
337.067
563.3353
661.3194
698.7009
980.5027
0.0 0.231042 0.186887
365.6105
392.778
537.3783
635.7352
744.8093
957.9589
0.0 0.231042 0.249182
412.919
454.8772
502.1093
581.4662
810.8679
921.8374
0.0 0.231042 -0.311478
459.6334
459.6334
519.1974
519.1974
871.9625
871.9625
0.0 0.346563 0.0
372.061
393.5828
640.5436
785.941
871.5549
912.1928
0.0 0.346563 0.062296
381.528
398.9641
635.6081
788.997
846.5055
937.0572
0.0 0.346563 0.124591
407.4746
416.676
620.9598
759.1246
851.3121
964.4792
0.0 0.346563 0.186887
444.2239
449.5049
597.1588
698.2163
887.7638
977.9835
0.0 0.346563 0.249182
485.7871
498.3117
565.3422
629.3541
926.136
975.143
0.0 0.346563 -0.311478
527.3475
527.3475
560.2965
560.2965
956.8835
956.8835
0.0 0.462084 0.0
423.766
484.9731
678.9542
825.2595
879.7908
966.1549
0.0 0.462084 0.062296
432.2388
483.4755
673.986
800.7403
895.9714
979.2876
0.0 0.462084 0.124591
455.7949
483.1763
659.3835
750.9174
928.1787
1004.2313
0.0 0.462084 0.186887
489.8427
493.1741
635.9993
691.0284
964.6618
1023.3584
0.0 0.462084 0.249182
521.0186
529.0268
605.15
627.445
997.1679
1029.0806
0.0 0.462084 -0.311478
567.7806
567.7806
568.6486
568.6486
1019.8271
1019.8271
0.0 -0.577605 0.0
439.6144
527.8875
692.3277
780.6084
909.3186
996.136
0.0 -0.577605 0.062296
447.8069
523.0156
687.2904
765.8233
921.2071
1005.9391
0.0 -0.577605 0.124591
470.6929
514.1152
672.5344
727.8423
951.001
1026.5826
0.0 -0.577605 0.186887
504.0108
513.1682
649.0293
676.5025
986.9279
1044.0138
0.0 -0.577605 0.249182
530.2189
542.6197
618.1897
620.0108
1019.0474
1049.7761
0.0 -0.577605 -0.311478
567.838
567.838
581.8704
581.8704
1041.1351
1041.1351
0.100044 0.173281 0.0
245.019
269.221
502.5183
609.9531
668.4643
1013.5963
0.100044 0.173281 0.062296
262.5645
281.1666
518.7855
611.4925
660.5245
1007.8268
0.100044 0.173281 0.124591
305.88
312.7496
540.8693
634.3458
636.9055
989.8926
0.100044 0.173281 0.186887
355.3275
360.4566
530.6352
598.8361
699.0181
958.3398
0.100044 0.173281 0.249182
400.9154
416.1091
503.5538
549.9343
777.3239
911.9136
0.100044 0.173281 -0.311478
438.0005
438.0005
501.1718
501.1718
850.7067
850.7067
0.100044 0.288802 0.0
356.6876
384.5361
604.4039
754.4557
803.4435
943.1137
0.100044 0.288802 0.062296
359.3815
395.4572
608.3037
753.1967
795.3914
949.4614
0.100044 0.288802 0.124591
374.0143
422.174
610.7857
726.8592
804.4771
959.1918
0.100044 0.288802 0.186887
405.3967
456.943
600.4254
675.9101
840.0023
960.1063
0.100044 0.288802 0.249182
450.0151
490.422
579.6389
619.7903
882.3413
947.084
0.100044 0.288802 -0.311478
492.1965
492.1965
577.8299
577.8299
920.1107
920.1107
0.100044 0.404323 0.0
456.3828
457.8847
673.8296
844.794
855.9232
923.7664
0.100044 0.404323 0.062296
443.6343
476.0615
672.4045
808.6501
876.3902
941.7893
0.100044 0.404323 0.124591
438.0602
501.5286
662.7349
758.2998
902.4816
971.1875
0.100044 0.404323 0.186887
446.9072
531.5127
637.8891
708.9116
934.3453
991.395
0.100044 0.404323 0.249182
474.3479
548.6687
611.7468
666.4208
964.8311
996.7732
0.100044 0.404323 -0.311478
516.341
516.341
630.0324
630.0324
987.1072
987.1072
0.100044 0.519844 0.0
491.8059
529.6286
710.1889
781.6634
889.9974
981.1048
0.100044 0.519844 0.062296
488.0706
534.3963
699.4498
772.6515
903.3633
989.6661
0.100044 0.519844 0.124591
479.1278
551.4144
668.582
752.3717
934.4515
1008.569
0.100044 0.519844 0.186887
475.8572
577.7361
625.6875
725.3471
970.3622
1025.2881
0.100044 0.519844 0.249182
489.1488
566.806
621.1203
692.7748
1001.865
1031.1959
0.100044 0.519844 -0.311478
521.8665
521.8665
656.7043
656.7043
1023.1761
1023.1761
0.200088 0.346563 0.0
446.8152
510.5762
659.0647
839.1376
867.0332
887.8102
0.200088 0.346563 0.062296
440.0594
516.6308
668.9397
794.8321
890.7292
904.47
0.200088 0.346563 0.124591
430.5944
532.3661
685.6489
736.604
901.4239
941.876
0.200088 0.346563 0.186887
434.5959
548.4507
682.6711
691.1822
921.1983
964.8222
0.200088 0.346563 0.249182
459.1955
540.6729
655.5895
681.8553
944.6844
971.5682
0.200088 0.346563 -0.311478
500.5222
500.5222
664.6258
664.6258
963.5678
963.5678
0.200088 0.462084 0.0
532.4342
590.2385
727.7178
783.3671
859.1754
948.4807
0.200088 0.462084 0.062296
516.3681
598.4046
724.4014
768.116
883.2361
951.5391
0.200088 0.462084 0.124591
488.6101
607.6388
694.9299
770.5131
918.3357
962.7096
0.200088 0.462084 0.186887
470.6796
588.0685
685.6389
771.1359
947.3042
978.7603
0.200088 0.462084 0.249182
473.4844
542.4469
706.7284
757.6057
970.6642
988.2673
0.200088 0.462084 -0.311478
499.4892
499.4892
734.0633
734.0633
985.4372
985.4372
0.200088 0.577605 0.0
580.7704
615.095
734.0332
764.2569
856.7178
966.7068
0.200088 0.577605 0.062296
555.6443
634.6985
694.4484
792.0894
870.5439
969.4407
0.200088 0.577605 0.124591
519.0416
639.1597
663.0025
810.7229
903.5041
978.4374
0.200088 0.577605 0.186887
491.4013
583.9861
694.1861
807.4512
940.557
990.2886
0.200088 0.577605 0.249182
482.9738
534.5687
727.6307
788.4421
971.2533
996.279
0.200088 0.577605 -0.311478
498.3372
498.3372
760.3236
760.3236
990.4109
990.4109
0.300132 0.519844 0.0
611.3423
701.3407
705.3829
778.5862
826.2167
949.4042
0.300132 0.519844 0.062296
589.4564
666.5667
719.0862
799.1791
849.8384
945.9532
0.300132 0.519844 0.124591
547.1586
613.6919
736.6076
835.4714
891.7083
938.7203
0.300132 0.519844 0.186887
509.479
561.0018
761.7859
855.1789
927.3149
938.143
0.300132 0.519844 0.249182
488.8592
517.669
791.8649
846.4621
948.6076
949.0421
0.300132 0.519844 -0.311478
491.6518
491.6518
822.0111
822.0111
955.3529
955.3529
P	=	11999.94	V	=	63.88337	E	=	-653.98003458
0.0 0.0 0.0
-0.0
0.0
0.0
518.0131
518.0131
1108.1527
0.0 0.0 0.062281
79.0388
79.0388
193.713
511.98
511.98
1096.3193
0.0 0.0 0.124562
155.6123
155.6123
379.3374
493.3292
493.3292
1061.4019
0.0 0.0 0.186843
228.3784
228.3784
461.2257
461.2257
549.57
1004.4736
0.0 0.0 0.249124
296.9042
296.9042
416.1032
416.1032
698.8765
925.7993
0.0 0.0 -0.311405
360.2709
360.2709
360.2709
360.2709
824.3602
824.3602
0.0 0.11553 0.0
149.7819
153.9281
343.5894
543.4516
590.2833
1087.0258
0.0 0.11553 0.062281
173.9244
187.8943
382.1004
537.6505
583.9082
1077.0112
0.0 0.11553 0.124562
221.4973
251.6856
483.1756
519.8755
564.5657
1047.2031
0.0 0.11553 0.186843
279.4871
313.3847
489.6684
530.6962
610.1706
997.968
0.0 0.11553 0.249124
339.223
373.6278
447.735
485.8464
732.8838
929.2435
0.0 0.11553 -0.311405
396.461
396.461
432.0632
432.0632
840.6671
840.6671
0.0 0.231059 0.0
287.135
287.2436
601.0659
626.3925
744.5004
1027.4054
0.0 0.231059 0.062281
299.301
304.0787
595.7039
644.0376
735.5741
1024.0351
0.0 0.231059 0.124562
331.6852
347.165
579.5625
680.8351
719.6748
1012.3524
0.0 0.231059 0.186843
375.8854
404.233
552.8084
653.7515
768.393
989.0448
0.0 0.231059 0.249124
424.5824
467.8773
516.4665
597.9821
836.7645
951.632
0.0 0.231059 -0.311405
472.7026
472.7026
533.949
533.949
899.9884
899.9884
0.0 0.346589 0.0
383.4065
405.2737
659.3892
810.181
898.0853
941.0873
0.0 0.346589 0.062281
393.0941
411.0084
654.2755
812.872
872.9447
966.5838
0.0 0.346589 0.124562
419.6632
429.5452
639.1178
781.7405
878.3009
995.0182
0.0 0.346589 0.186843
457.3322
463.4077
614.5399
719.1792
915.784
1009.0492
0.0 0.346589 0.249124
499.9811
513.5452
581.755
648.3471
955.3624
1006.0868
0.0 0.346589 -0.311405
542.6736
542.6736
577.2773
577.2773
987.1536
987.1536
0.0 0.462119 0.0
437.5418
499.3843
699.3263
850.7763
907.6041
997.2159
0.0 0.462119 0.062281
446.2261
498.0906
694.1867
825.5088
924.2467
1010.7707
0.0 0.462119 0.124562
470.3515
498.2565
679.097
774.2411
957.2911
1036.567
0.0 0.462119 0.186843
505.1878
508.8605
654.9824
712.6503
994.8188
1056.2843
0.0 0.462119 0.249124
537.6202
545.2639
623.256
647.2192
1028.4603
1061.9881
0.0 0.462119 -0.311405
585.7823
585.7823
585.8194
585.8194
1052.1212
1052.1212
0.0 -0.577648 0.0
454.2891
543.6639
713.2715
804.4128
938.5277
1028.7333
0.0 -0.577648 0.062281
462.6994
538.9092
708.0677
789.3027
950.5542
1038.8644
0.0 -0.577648 0.124562
486.1548
530.2454
692.8374
750.4392
980.8582
1060.1797
0.0 -0.577648 0.186843
520.2256
529.6242
668.624
697.8104
1017.7131
1078.0445
0.0 -0.577648 0.249124
547.3246
559.6539
636.9465
639.781
1051.0104
1083.6424
0.0 -0.577648 -0.311405
586.0956
586.0956
599.7562
599.7562
1074.2327
1074.2327
0.100052 0.173295 0.0
252.4055
276.4606
517.5641
628.075
687.1243
1046.6174
0.100052 0.173295 0.062281
270.4902
288.7337
534.1854
629.864
679.0222
1040.6716
0.100052 0.173295 0.124562
314.9365
321.2096
556.4281
654.1529
654.877
1022.159
0.100052 0.173295 0.186843
365.0418
370.799
545.6904
615.8494
721.3191
989.5329
0.100052 0.173295 0.249124
412.0108
427.8396
517.7957
565.5823
802.3233
941.4995
0.100052 0.173295 -0.311405
450.2354
450.2354
515.3885
515.3885
878.1952
878.1952
0.100052 0.288824 0.0
367.327
395.2646
621.8095
777.4654
827.4706
973.2607
0.100052 0.288824 0.062281
370.2363
406.4959
625.697
775.6985
819.8478
979.8139
0.100052 0.288824 0.124562
385.4461
433.9487
628.068
748.1024
830.0526
989.8971
0.100052 0.288824 0.186843
417.6188
469.663
617.4036
695.8033
866.7606
990.8474
0.100052 0.288824 0.249124
463.2148
504.0505
596.272
638.0519
910.4286
977.339
0.100052 0.288824 -0.311405
506.1409
506.1409
594.7166
594.7166
949.4257
949.4257
0.100052 0.404354 0.0
469.9511
471.513
693.4164
870.9821
882.6834
953.0734
0.100052 0.404354 0.062281
457.0188
490.23
691.8932
833.488
904.1911
971.5554
0.100052 0.404354 0.124562
451.6164
516.4155
681.97
781.5158
931.143
1001.9402
0.100052 0.404354 0.186843
460.8933
547.1296
656.787
730.3953
963.884
1022.847
0.100052 0.404354 0.249124
489.0588
564.7484
630.2926
686.3019
995.2574
1028.343
0.100052 0.404354 -0.311405
532.0187
532.0187
648.8082
648.8082
1018.2729
1018.2729
0.100052 0.519884 0.0
507.182
545.4782
731.1638
805.6248
918.2858
1012.9387
0.100052 0.519884 0.062281
503.221
550.7396
720.1817
796.3434
931.9033
1021.7748
0.100052 0.519884 0.124562
494.1344
568.5537
688.6913
775.3418
963.6678
1041.2623
0.100052 0.519884 0.186843
491.0131
595.5532
644.9482
747.3425
1000.5494
1058.3781
0.100052 0.519884 0.249124
504.7878
584.4436
640.2067
713.7073
1033.1537
1064.1592
0.100052 0.519884 -0.311405
538.4046
538.4046
676.6207
676.6207
1055.474
1055.474
0.200103 0.346589 0.0
460.1254
524.7037
677.9644
864.1063
894.2782
916.5368
0.200103 0.346589 0.062281
453.388
530.9022
687.9512
818.9566
919.5839
932.5552
0.200103 0.346589 0.124562
443.9839
547.0124
704.8718
759.2198
930.6348
971.3075
0.200103 0.346589 0.186843
448.1894
563.5282
703.8407
710.5193
950.8736
995.1305
0.200103 0.346589 0.249124
473.3161
556.0614
675.4213
701.1531
974.812
1002.1797
0.200103 0.346589 -0.311405
515.4674
515.4674
683.8924
683.8924
994.0524
994.0524
0.200103 0.462119 0.0
548.4013
607.2983
748.7604
807.5818
885.6133
979.0165
0.200103 0.462119 0.062281
532.0228
615.686
745.6593
791.5118
910.5357
982.1436
0.200103 0.462119 0.124562
503.7946
625.115
716.2678
793.0497
946.9813
993.4801
0.200103 0.462119 0.186843
485.6037
605.484
706.4978
793.4769
976.9831
1009.7301
0.200103 0.462119 0.249124
488.5464
559.1066
727.7219
779.6159
1001.0167
1019.2961
0.200103 0.462119 -0.311405
515.1836
515.1836
755.5655
755.5655
1016.2455
1016.2455
0.200103 0.577648 0.0
598.3204
633.4037
756.4955
786.3892
883.5065
997.5962
0.200103 0.577648 0.062281
572.4899
653.7635
715.3875
815.4881
897.6183
1000.4203
0.200103 0.577648 0.124562
535.1048
658.602
683.0064
834.7666
931.3527
1009.6441
0.200103 0.577648 0.186843
506.9759
602.0705
715.046
831.3962
969.4179
1021.6604
0.200103 0.577648 0.249124
498.4827
551.448
749.328
811.7941
1001.1162
1027.5052
0.200103 0.577648 -0.311405
514.2985
514.2985
782.8693
782.8693
1021.1055
1021.1055
0.300155 0.519884 0.0
629.8828
722.1098
726.9998
801.6718
851.0742
979.2333
0.300155 0.519884 0.062281
607.426
686.612
740.8304
822.8903
875.4911
975.6533
0.300155 0.519884 0.124562
564.1147
632.3754
758.7748
860.2173
918.7646
968.1265
0.300155 0.519884 0.186843
525.6152
578.4312
784.5394
880.4561
955.5254
967.3123
0.300155 0.519884 0.249124
504.582
534.0969
815.359
871.5092
977.7377
977.9291
0.300155 0.519884 -0.311405
507.4712
507.4712
846.3324
846.3324
984.4867
984.4867
P	=	13000.14	V	=	62.34646	E	=	-653.84950153
0.0 0.0 0.0
-0.0
0.0
0.0
531.7005
531.7005
1141.9921
0.0 0.0 0.062265
81.4247
81.4247
199.4176
525.5929
525.5929
1129.6991
0.0 0.0 0.12453
160.1328
160.1328
390.4789
506.6175
506.6175
1093.4615
0.0 0.0 0.186795
234.7342
234.7342
473.7543
473.7543
565.6682
1034.4905
0.0 0.0 0.249059
304.9465
304.9465
427.3855
427.3855
719.3343
953.1806
0.0 0.0 -0.311324
369.9813
369.9813
369.9813
369.9813
848.5644
848.5644
0.0 0.115538 0.0
153.9297
157.6837
353.1117
557.7608
605.463
1120.0323
0.0 0.115538 0.062265
178.314
193.0687
392.9046
551.8576
598.9955
1109.6728
0.0 0.115538 0.12453
227.2609
258.3123
497.242
533.7052
579.3047
1078.834
0.0 0.115538 0.186795
286.7715
321.3459
502.719
544.5699
628.1583
1027.9096
0.0 0.115538 0.249059
348.0417
383.0381
459.5853
498.4443
754.5153
956.9041
0.0 0.115538 -0.311324
406.8342
406.8342
443.0783
443.0783
865.5388
865.5388
0.0 0.231077 0.0
294.5237
295.0602
616.9456
643.98
763.8169
1058.1264
0.0 0.231077 0.062265
306.9932
312.523
611.4382
662.0852
754.7809
1054.7048
0.0 0.231077 0.12453
340.1767
356.8087
594.842
699.1436
739.5551
1042.7266
0.0 0.231077 0.186795
385.4692
415.0329
567.3008
670.7376
790.658
1018.6374
0.0 0.231077 0.249059
435.4122
479.9888
529.8754
613.4881
861.2123
979.889
0.0 0.231077 -0.311324
484.844
484.844
547.7026
547.7026
926.4796
926.4796
0.0 0.346615 0.0
394.012
416.1639
677.1294
833.0206
923.222
968.6238
0.0 0.346615 0.062265
403.9163
422.3083
671.8543
835.3775
898.0463
994.6821
0.0 0.346615 0.12453
431.0804
441.7177
656.2233
803.2011
903.8191
1024.0606
0.0 0.346615 0.186795
469.6048
476.5229
630.8983
739.0994
942.2344
1038.5392
0.0 0.346615 0.249059
513.2594
527.8395
597.1638
666.3202
982.9376
1035.3759
0.0 0.346615 -0.311324
557.0243
557.0243
593.2408
593.2408
1015.7364
1015.7364
0.0 0.462154 0.0
450.4569
512.8579
718.5312
875.0599
933.8863
1026.7267
0.0 0.462154 0.062265
459.3562
511.7832
713.2365
849.0821
950.9946
1040.6906
0.0 0.462154 0.12453
484.0468
512.4214
697.6977
796.4584
984.8455
1067.2985
0.0 0.462154 0.186795
519.6405
523.5776
672.8935
733.2166
1023.3422
1087.5353
0.0 0.462154 0.249059
553.1668
560.556
640.3257
665.9248
1058.028
1093.1474
0.0 0.462154 -0.311324
601.9935
601.9935
602.6924
602.6924
1082.6419
1082.6419
0.0 -0.577692 0.0
468.0603
558.4744
733.0296
827.0188
966.1721
1059.7271
0.0 -0.577692 0.062265
476.6957
553.8278
727.6762
811.6165
978.3512
1070.1771
0.0 -0.577692 0.12453
500.7265
545.373
712.0125
771.9336
1009.1637
1092.1278
0.0 -0.577692 0.186795
535.5312
545.0203
687.1358
718.0431
1046.879
1110.3578
0.0 -0.577692 0.249059
563.3044
575.7354
654.6603
658.4462
1081.2491
1115.7247
0.0 -0.577692 -0.311324
603.2104
603.2104
616.6408
616.6408
1105.5368
1105.5368
0.100059 0.173308 0.0
259.3134
283.1884
531.6894
645.1805
704.6788
1078.0696
0.100059 0.173308 0.062265
278.0314
295.8051
548.6233
647.2265
696.4361
1071.9779
0.100059 0.173308 0.12453
323.6043
329.1574
571.0243
671.8118
672.8856
1052.9357
0.100059 0.173308 0.186795
374.1261
380.5129
559.8135
631.8585
742.3988
1019.2407
0.100059 0.173308 0.249059
422.3038
438.6814
531.108
580.2293
825.9397
969.5717
0.100059 0.173308 -0.311324
461.5281
461.5281
528.6396
528.6396
904.1884
904.1884
0.100059 0.288846 0.0
377.2537
405.2788
638.1142
799.1615
850.2348
1002.0017
0.100059 0.288846 0.062265
380.453
416.8189
641.9946
796.9009
843.0508
1008.7486
0.100059 0.288846 0.12453
396.2822
444.9889
644.2863
768.2037
854.2554
1019.1436
0.100059 0.288846 0.186795
429.1123
481.5673
633.3563
714.6581
892.0461
1020.0557
0.100059 0.288846 0.249059
475.4888
516.7358
611.9156
655.3239
936.9494
1005.9883
0.100059 0.288846 -0.311324
519.0559
519.0559
610.6467
610.6467
977.1182
977.1182
0.100059 0.404385 0.0
482.6428
484.2892
711.8306
895.7248
908.2036
980.9124
0.100059 0.404385 0.062265
469.585
503.5246
710.2245
857.0886
930.5548
999.844
0.100059 0.404385 0.12453
464.384
530.4218
700.0862
803.6035
958.2824
1031.1611
0.100059 0.404385 0.186795
474.0225
561.8244
674.6125
750.8144
991.816
1052.685
0.100059 0.404385 0.249059
502.7844
579.8014
647.8343
705.1493
1023.9966
1058.2199
0.100059 0.404385 -0.311324
546.6297
546.6297
666.5861
666.5861
1047.7148
1047.7148
0.100059 0.519923 0.0
521.6378
560.3942
750.9538
828.4378
945.0658
1043.2069
0.100059 0.519923 0.062265
517.4925
566.1051
739.7789
818.8663
958.9378
1052.3124
0.100059 0.519923 0.12453
508.2731
584.6812
707.7463
797.1326
991.3535
1072.3516
0.100059 0.519923 0.186795
505.2237
612.3628
663.1731
768.1925
1029.1291
1089.7961
0.100059 0.519923 0.249059
519.3767
601.0193
658.2678
733.5487
1062.7388
1095.382
0.100059 0.519923 -0.311324
553.8459
553.8459
695.4918
695.4918
1086.0132
1086.0132
0.200118 0.346615 0.0
472.5991
537.9561
695.653
887.7427
920.2945
943.8216
0.200118 0.346615 0.062265
465.9298
544.3028
705.7462
841.8794
946.987
959.282
0.200118 0.346615 0.12453
456.6348
560.7835
722.89
780.7369
958.3584
999.2629
0.200118 0.346615 0.186795
460.9706
577.6777
723.9831
728.6984
978.9951
1023.8516
0.200118 0.346615 0.249059
486.4728
570.403
694.2888
719.3653
1003.3055
1031.1229
0.200118 0.346615 -0.311324
529.3459
529.3459
702.1561
702.1561
1022.8521
1022.8521
0.200118 0.462154 0.0
563.4868
623.3705
768.5857
830.7285
910.6904
1008.0424
0.200118 0.462154 0.062265
546.8193
631.9823
765.756
813.7601
936.4449
1011.2438
0.200118 0.462154 0.12453
518.1363
641.6523
736.4988
814.3347
974.1391
1022.7395
0.200118 0.462154 0.186795
499.6363
621.9582
726.2521
814.5785
1005.0823
1039.1233
0.200118 0.462154 0.249059
502.6243
574.7538
747.6339
800.4552
1029.7147
1048.6679
0.200118 0.462154 -0.311324
529.8392
529.8392
775.9626
775.9626
1045.3654
1045.3654
0.200118 0.577692 0.0
614.9888
650.687
777.9516
807.3467
908.9085
1026.9494
0.200118 0.577692 0.062265
588.4765
671.7497
735.3597
837.6576
923.2947
1029.8711
0.200118 0.577692 0.12453
550.3093
677.1281
701.8689
857.5089
957.75
1039.3162
0.200118 0.577692 0.186795
521.6382
619.2234
734.7523
854.0576
996.7334
1051.4453
0.200118 0.577692 0.249059
513.0039
567.3388
769.8837
833.9346
1029.3432
1057.0793
0.200118 0.577692 -0.311324
529.2379
529.2379
804.2614
804.2614
1050.1234
1050.1234
0.300178 0.519923 0.0
647.5609
741.7417
747.6933
823.5733
874.7067
1007.5304
0.300178 0.519923 0.062265
624.5384
705.7507
761.401
845.3746
899.8774
1003.8326
0.300178 0.519923 0.12453
580.2143
650.1946
779.694
883.6403
944.442
996.043
0.300178 0.519923 0.186795
540.8682
594.9742
806.0353
904.3642
982.2344
994.9922
0.300178 0.519923 0.249059
519.3763
549.5927
837.616
895.2512
1005.2285
1005.3062
0.300178 0.519923 -0.311324
522.3372
522.3372
869.4107
869.4107
1012.0108
1012.0108
P	=	13999.82	V	=	60.94159	E	=	-653.72062729
0.0 0.0 0.0
-0.0
0.0
0.0
544.7442
544.7442
1174.2145
0.0 0.0 0.062248
83.3483
83.3483
204.873
538.5807
538.5807
1161.496
0.0 0.0 0.124496
163.9361
163.9361
401.1637
519.3427
519.3427
1124.042
0.0 0.0 0.186745
240.3873
240.3873
485.8193
485.8193
581.1517
1063.195
0.0 0.0 0.248993
312.454
312.454
438.2878
438.2878
739.0376
979.4514
0.0 0.0 -0.311241
379.297
379.297
379.297
379.297
871.8528
871.8528
0.0 0.115545 0.0
157.9229
161.3152
362.0272
571.3849
619.8724
1151.484
0.0 0.115545 0.062248
182.4248
197.9342
403.0748
565.3926
613.3264
1140.801
0.0 0.115545 0.124496
232.524
264.4709
510.5997
546.9086
593.3421
1109.0019
0.0 0.115545 0.186745
293.4899
328.8464
515.2225
557.8672
645.3328
1056.5125
0.0 0.115545 0.248993
356.3521
392.0694
470.9658
510.6027
775.2405
983.3849
0.0 0.115545 -0.311241
416.756
416.756
453.7379
453.7379
889.3842
889.3842
0.0 0.231091 0.0
301.5767
302.5487
632.0855
660.5262
782.1291
1087.4661
0.0 0.231091 0.062248
314.3098
320.574
626.4431
679.107
772.9963
1083.9807
0.0 0.231091 0.124496
348.2132
366.0001
609.4231
716.5329
758.4115
1071.6921
0.0 0.231091 0.186745
394.5385
425.4363
581.1428
687.0199
811.7995
1046.8429
0.0 0.231091 0.248993
445.7001
491.7746
542.6849
628.4756
884.4914
1006.8242
0.0 0.231091 -0.311241
496.4227
496.4227
561.0927
561.0927
951.7319
951.7319
0.0 0.346636 0.0
404.0789
426.5702
694.0872
854.7311
947.0837
995.0098
0.0 0.346636 0.062248
414.1933
433.097
688.6713
856.8614
921.8621
1021.5304
0.0 0.346636 0.124496
441.9297
453.3583
672.6131
823.7992
928.0021
1051.753
0.0 0.346636 0.186745
481.273
489.1502
646.581
758.2683
967.3575
1066.6245
0.0 0.346636 0.248993
525.8999
541.695
611.9138
683.693
1009.1644
1063.2564
0.0 0.346636 -0.311241
570.7214
570.7214
608.73
608.73
1042.9379
1042.9379
0.0 0.462181 0.0
462.7416
525.7683
736.8902
898.3826
959.0925
1054.8125
0.0 0.462181 0.062248
471.8557
524.901
731.4744
871.7364
976.6042
1069.1848
0.0 0.462181 0.124496
497.0991
526.0067
715.5591
817.8218
1011.1761
1096.5739
0.0 0.462181 0.186745
533.4181
537.7444
690.1179
753.0205
1050.5506
1117.2909
0.0 0.462181 0.248993
568.1891
575.1441
656.7125
683.9802
1086.1897
1122.7997
0.0 0.462181 -0.311241
617.4648
617.4648
619.0462
619.0462
1111.687
1111.687
0.0 -0.577727 0.0
481.1866
572.7117
751.9046
848.729
992.7553
1089.2766
0.0 -0.577727 0.062248
490.0467
568.1645
746.4416
833.0462
1005.0675
1100.0265
0.0 -0.577727 0.124496
514.6395
559.916
730.4294
792.5871
1036.3182
1122.5648
0.0 -0.577727 0.186745
550.1438
559.8539
704.9509
737.5136
1074.7748
1141.1144
0.0 -0.577727 0.248993
578.7375
591.0946
671.6816
676.4483
1110.0829
1146.2427
0.0 -0.577727 -0.311241
619.7457
619.7457
632.8078
632.8078
1135.3283
1135.3283
0.100065 0.173318 0.0
265.9387
289.5863
545.045
661.3328
721.3612
1108.0861
0.100065 0.173318 0.062248
285.2121
302.4928
562.3218
663.6166
712.9935
1101.8469
0.100065 0.173318 0.124496
331.8459
336.6233
584.9428
687.9528
690.595
1082.2871
0.100065 0.173318 0.186745
382.6755
389.8603
573.2956
647.2045
762.4242
1047.5747
0.100065 0.173318 0.248993
432.0659
449.2186
543.8425
594.3841
848.4495
996.3606
0.100065 0.173318 -0.311241
472.3537
472.3537
541.4778
541.4778
928.9969
928.9969
0.100065 0.288863 0.0
386.7379
414.7194
653.6652
819.7258
871.8506
1029.5153
0.100065 0.288863 0.062248
390.1929
426.5572
657.553
817.0917
865.028
1036.4139
0.100065 0.288863 0.124496
406.6236
455.4175
659.788
787.4838
877.1435
1047.0479
0.100065 0.288863 0.186745
440.1684
492.8542
648.6122
732.7979
916.0339
1047.8848
0.100065 0.288863 0.248993
487.3797
528.8551
626.884
671.976
962.167
1033.2705
0.100065 0.288863 -0.311241
531.5349
531.5349
625.941
625.941
1003.4793
1003.4793
0.100065 0.404409 0.0
494.7772
496.3529
729.442
919.4261
932.717
1007.3463
0.100065 0.404409 0.062248
481.5555
516.1293
727.7776
879.7991
955.6864
1026.7833
0.100065 0.404409 0.124496
476.5795
543.7004
717.4815
824.8598
984.0984
1059.0198
0.100065 0.404409 0.186745
486.6323
575.7813
691.7686
770.435
1018.3815
1081.1174
0.100065 0.404409 0.248993
516.0482
594.2438
664.6446
723.1981
1051.3359
1086.6689
0.100065 0.404409 -0.311241
560.7759
560.7759
683.5532
683.5532
1075.7335
1075.7335
0.100065 0.519954 0.0
535.3531
574.7186
769.8845
850.3756
970.819
1072.032
0.100065 0.519954 0.062248
531.0682
580.8262
758.5654
840.5108
984.911
1081.3966
0.100065 0.519954 0.124496
521.7778
600.0879
726.0884
818.0477
1017.8931
1101.9545
0.100065 0.519954 0.186745
518.8579
628.3982
680.7618
788.1751
1056.4481
1119.6929
0.100065 0.519954 0.248993
533.4427
617.032
675.4943
752.5168
1090.943
1125.0804
0.100065 0.519954 -0.311241
568.7782
568.7782
713.4852
713.4852
1115.076
1115.076
0.20013 0.346636 0.0
484.5122
550.3764
712.5717
910.5029
945.2918
969.6046
0.20013 0.346636 0.062248
477.9066
556.8669
722.774
863.9797
972.8913
984.9227
0.20013 0.346636 0.124496
468.7342
573.7189
740.14
801.5151
984.5915
1026.0151
0.20013 0.346636 0.186745
473.2603
591.0604
743.4005
746.0824
1005.6483
1051.2813
0.20013 0.346636 0.248993
499.2106
584.1886
712.3142
736.7261
1030.3685
1058.7181
0.20013 0.346636 -0.311241
542.8099
542.8099
719.5239
719.5239
1050.2621
1050.2621
0.20013 0.462181 0.0
577.9509
638.5403
787.5681
853.0331
934.8635
1035.5989
0.20013 0.462181 0.062248
560.9973
647.3737
785.0407
835.2011
961.3524
1038.8819
0.20013 0.462181 0.124496
531.8781
657.3025
756.0065
834.7506
1000.1276
1050.5667
0.20013 0.462181 0.186745
513.0986
637.7223
745.145
834.7499
1031.8683
1067.1126
0.20013 0.462181 0.248993
516.1699
589.8373
766.5429
820.2942
1057.0318
1076.6361
0.20013 0.462181 -0.311241
543.9781
543.9781
795.3189
795.3189
1073.0824
1073.0824
0.20013 0.577727 0.0
631.0271
667.0831
798.6305
827.4365
933.3477
1054.8821
0.20013 0.577727 0.062248
603.8101
688.8767
754.5962
858.9217
947.9748
1057.8957
0.20013 0.577727 0.124496
564.8785
694.9891
719.8452
879.2841
983.0634
1067.5424
0.20013 0.577727 0.186745
535.6843
635.7656
753.503
875.6944
1022.8531
1079.7655
0.20013 0.577727 0.248993
526.9325
582.6522
789.3962
854.9971
1056.2627
1085.1992
0.20013 0.577727 -0.311241
543.6041
543.6041
824.5607
824.5607
1077.7417
1077.7417
0.300196 0.519954 0.0
664.5818
760.4317
767.6636
844.5527
897.4464
1034.4301
0.300196 0.519954 0.062248
641.0172
724.1423
781.0979
866.8909
923.3038
1030.6178
0.300196 0.519954 0.124496
595.6995
667.3434
799.6922
906.0209
969.043
1022.56
0.300196 0.519954 0.186745
555.4965
610.8762
826.5184
927.15
1007.7648
1021.2746
0.300196 0.519954 0.248993
533.5298
564.4514
858.734
917.7805
1031.2743
1031.522
0.300196 0.519954 -0.311241
536.5603
536.5603
891.2655
891.2655
1038.228
1038.228
P	=	14999.91	V	=	59.64749	E	=	-653.59311443
0.0 0.0 0.0
0.0
0.0
0.0
557.1514
557.1514
1205.0915
0.0 0.0 0.062232
85.1958
85.1958
210.0282
550.9398
550.9398
1191.984
0.0 0.0 0.124463
167.5754
167.5754
411.2687
531.4613
531.4613
1153.398
0.0 0.0 0.186695
245.7757
245.7757
497.312
497.312
595.8241
1090.7564
0.0 0.0 0.248927
319.5947
319.5947
448.6664
448.6664
757.7727
1004.6301
0.0 0.0 -0.311159
388.157
388.157
388.157
388.157
894.0911
894.0911
0.0 0.115552 0.0
161.8095
164.8256
370.6427
584.3628
633.6095
1181.6534
0.0 0.115552 0.062232
186.3886
202.6449
412.8498
578.2917
626.9925
1170.6725
0.0 0.115552 0.124463
237.5694
270.368
523.3593
559.5011
606.7338
1137.9716
0.0 0.115552 0.186695
299.8923
335.9592
527.1452
570.5384
661.7087
1083.9732
0.0 0.115552 0.248927
364.2467
400.6076
481.8006
522.1612
795.0089
1008.7642
0.0 0.115552 -0.311159
426.1835
426.1835
463.8362
463.8362
912.1774
912.1774
0.0 0.231104 0.0
308.4382
309.7881
646.5321
676.5282
799.6389
1115.679
0.0 0.231104 0.062232
321.4166
328.3672
640.7625
695.5256
790.4295
1112.1264
0.0 0.231104 0.124463
355.9821
374.8663
623.3381
733.1619
776.5471
1099.5182
0.0 0.231104 0.186695
403.2481
435.3784
594.344
702.5682
832.0725
1073.8993
0.0 0.231104 0.248927
455.5252
502.9605
554.8884
642.7462
906.7677
1032.6171
0.0 0.231104 -0.311159
507.4523
507.4523
573.7982
573.7982
975.8868
975.8868
0.0 0.346655 0.0
413.9307
436.5696
710.2717
875.6391
970.0349
1020.4365
0.0 0.346655 0.062232
424.2385
443.4812
704.7103
877.4987
944.8466
1047.3509
0.0 0.346655 0.124463
452.5026
464.5727
688.2253
843.5644
951.3267
1078.3326
0.0 0.346655 0.186695
492.5971
501.2721
661.5204
776.6517
991.4965
1093.533
0.0 0.346655 0.248927
538.1041
554.9319
626.0018
700.3095
1034.2857
1089.9299
0.0 0.346655 -0.311159
583.8691
583.8691
623.5097
623.5097
1068.954
1068.954
0.0 0.462207 0.0
474.8041
538.166
754.4054
920.8464
983.2974
1081.911
0.0 0.462207 0.062232
484.1124
537.5004
748.8504
893.5441
1001.2208
1096.6579
0.0 0.462207 0.124463
509.8695
539.0543
732.5419
838.377
1036.485
1124.7563
0.0 0.462207 0.186695
546.8775
551.3292
706.5171
772.0486
1076.6606
1145.8743
0.0 0.462207 0.248927
582.5609
589.3513
672.4167
701.2842
1113.164
1151.2208
0.0 0.462207 -0.311159
632.427
632.427
634.6861
634.6861
1139.492
1139.492
0.0 -0.577759 0.0
494.0879
586.4142
769.9089
869.5977
1018.2682
1117.8042
0.0 -0.577759 0.062232
503.1492
581.951
764.3126
853.6477
1030.7201
1128.8354
0.0 -0.577759 0.124463
528.2653
573.8774
747.929
812.4427
1062.3987
1151.9067
0.0 -0.577759 0.186695
564.4472
574.0658
721.9124
756.2149
1101.5396
1170.6993
0.0 -0.577759 0.248927
593.4979
606.0986
688.0194
693.7024
1137.7085
1175.5237
0.0 -0.577759 -0.311159
635.5616
635.5616
648.4893
648.4893
1163.8663
1163.8663
0.100071 0.173328 0.0
272.3586
295.7599
557.9298
676.7982
737.3072
1136.9302
0.100071 0.173328 0.062232
292.1793
308.9411
575.4768
679.3374
728.8206
1130.5499
0.100071 0.173328 0.124463
339.802
343.7975
598.2203
703.3776
707.6107
1110.4844
0.100071 0.173328 0.186695
390.8457
398.7881
586.1413
661.8489
781.6136
1074.7644
0.100071 0.173328 0.248927
441.3558
459.2216
555.951
607.8503
869.9811
1022.0224
0.100071 0.173328 -0.311159
482.6458
482.6458
553.6508
553.6508
952.7279
952.7279
0.100071 0.288879 0.0
395.8768
423.8727
668.5451
839.4978
892.6437
1056.0231
0.100071 0.288879 0.062232
399.6033
435.9879
672.4126
836.4622
886.2229
1063.0411
0.100071 0.288879 0.124463
416.6253
465.4934
674.5566
805.9553
899.2216
1073.8482
0.100071 0.288879 0.186695
450.8222
503.7128
663.1373
750.1636
939.0965
1074.552
0.100071 0.288879 0.248927
498.7883
540.4694
641.1359
687.8816
986.3305
1059.37
0.100071 0.288879 -0.311159
543.4871
543.4871
640.5108
640.5108
1028.693
1028.693
0.100071 0.404431 0.0
506.4437
508.1169
746.2506
942.1934
956.369
1032.8541
0.100071 0.404431 0.062232
493.1267
528.347
744.5108
901.639
979.9229
1052.7404
0.100071 0.404431 0.124463
488.3664
556.5609
734.0384
845.2929
1008.9759
1085.802
0.100071 0.404431 0.186695
498.8341
589.2729
708.1245
789.2609
1043.9143
1108.3875
0.100071 0.404431 0.248927
528.8934
608.1908
680.7263
740.4652
1077.5363
1113.9044
0.100071 0.404431 -0.311159
574.4597
574.4597
699.7814
699.7814
1102.5449
1102.5449
0.100071 0.519983 0.0
548.7683
588.5225
787.9514
871.5157
995.5472
1099.859
0.100071 0.519983 0.062232
544.2917
595.038
776.4803
861.3409
1009.8637
1109.4704
0.100071 0.519983 0.124463
534.8736
614.9784
743.583
838.1181
1043.3917
1130.4977
0.100071 0.519983 0.186695
532.0952
643.8854
697.6097
807.2983
1082.6604
1148.4504
0.100071 0.519983 0.248927
547.1391
632.5118
692.0648
770.6628
1117.9622
1153.5708
0.100071 0.519983 -0.311159
583.2995
583.2995
730.7419
730.7419
1142.9116
1142.9116
0.200142 0.346655 0.0
495.9857
562.3872
728.7625
932.3134
969.4364
994.5334
0.200142 0.346655 0.062232
489.442
569.0168
739.0402
885.2109
997.9473
1009.5969
0.200142 0.346655 0.124463
480.4001
586.2221
756.5725
821.4727
1009.9568
1051.6816
0.200142 0.346655 0.186695
485.15
603.9886
762.0366
762.6328
1031.3446
1077.5317
0.200142 0.346655 0.248927
511.5768
597.5257
729.5822
753.2728
1056.3483
1085.0962
0.200142 0.346655 -0.311159
555.8787
555.8787
736.1102
736.1102
1076.4898
1076.4898
0.200142 0.462207 0.0
591.9179
653.2342
805.7545
874.6102
958.0711
1062.2061
0.200142 0.462207 0.062232
574.6607
662.2697
803.5058
855.8721
985.2955
1065.5793
0.200142 0.462207 0.124463
545.1104
672.4244
774.7224
854.3087
1025.1075
1077.423
0.200142 0.462207 0.186695
526.1584
652.9655
763.3008
854.0244
1057.5937
1094.0268
0.200142 0.462207 0.248927
529.4587
604.5562
784.6758
839.2526
1083.2193
1103.445
0.200142 0.462207 -0.311159
557.8866
557.8866
813.839
813.839
1099.6245
1099.6245
0.200142 0.577759 0.0
646.5546
682.9913
818.6261
846.6847
956.8497
1081.8124
0.200142 0.577759 0.062232
618.6237
705.4638
773.0938
879.3418
971.7176
1084.9322
0.200142 0.577759 0.124463
578.9345
712.1339
737.2028
900.1409
1007.4031
1094.7737
0.200142 0.577759 0.186695
549.3446
651.737
771.5529
896.3937
1047.92
1107.0224
0.200142 0.577759 0.248927
540.66
597.6373
808.1232
875.1483
1082.054
1112.1829
0.200142 0.577759 -0.311159
557.8127
557.8127
844.0007
844.0007
1104.1988
1104.1988
0.300212 0.519983 0.0
681.081
778.4369
787.027
864.8025
919.336
1060.3046
0.300212 0.519983 0.062232
656.9272
741.8869
800.0863
887.6462
945.8736
1056.4041
0.300212 0.519983 0.124463
610.6073
683.8577
818.9347
927.5388
992.7028
1048.1238
0.300212 0.519983 0.186695
569.7123
626.3036
846.1864
948.9939
1032.251
1046.5875
0.300212 0.519983 0.248927
547.5348
579.1091
878.9641
939.3587
1056.2197
1056.689
0.300212 0.519983 -0.311159
550.7463
550.7463
912.1836
912.1836
1063.3456
1063.3456

weight
   0.0000000   0.0000000   0.0000000   0.0020000   
   0.0000000   0.0000000   0.1000000   0.0040000   
   0.0000000   0.0000000   0.2000000   0.0040000   
   0.0000000   0.0000000   0.3000000   0.0040000   
   0.0000000   0.0000000   0.4000000   0.0040000   
   0.0000000   0.0000000  -0.5000000   0.0020000   
   0.0000000   0.1000000   0.0000000   0.0120000   
   0.0000000   0.1000000   0.1000000   0.0240000   
   0.0000000   0.1000000   0.2000000   0.0240000   
   0.0000000   0.1000000   0.3000000   0.0240000   
   0.0000000   0.1000000   0.4000000   0.0240000   
   0.0000000   0.1000000  -0.5000000   0.0120000   
   0.0000000   0.2000000   0.0000000   0.0120000   
   0.0000000   0.2000000   0.1000000   0.0240000   
   0.0000000   0.2000000   0.2000000   0.0240000   
   0.0000000   0.2000000   0.3000000   0.0240000   
   0.0000000   0.2000000   0.4000000   0.0240000   
   0.0000000   0.2000000  -0.5000000   0.0120000   
   0.0000000   0.3000000   0.0000000   0.0120000   
   0.0000000   0.3000000   0.1000000   0.0240000   
   0.0000000   0.3000000   0.2000000   0.0240000   
   0.0000000   0.3000000   0.3000000   0.0240000   
   0.0000000   0.3000000   0.4000000   0.0240000   
   0.0000000   0.3000000  -0.5000000   0.0120000   
   0.0000000   0.4000000   0.0000000   0.0120000   
   0.0000000   0.4000000   0.1000000   0.0240000   
   0.0000000   0.4000000   0.2000000   0.0240000   
   0.0000000   0.4000000   0.3000000   0.0240000   
   0.0000000   0.4000000   0.4000000   0.0240000   
   0.0000000   0.4000000  -0.5000000   0.0120000   
   0.0000000  -0.5000000   0.0000000   0.0060000   
   0.0000000  -0.5000000   0.1000000   0.0120000   
   0.0000000  -0.5000000   0.2000000   0.0120000   
   0.0000000  -0.5000000   0.3000000   0.0120000   
   0.0000000  -0.5000000   0.4000000   0.0120000   
   0.0000000  -0.5000000  -0.5000000   0.0060000   
   0.1000000   0.1000000   0.0000000   0.0120000   
   0.1000000   0.1000000   0.1000000   0.0240000   
   0.1000000   0.1000000   0.2000000   0.0240000   
   0.1000000   0.1000000   0.3000000   0.0240000   
   0.1000000   0.1000000   0.4000000   0.0240000   
   0.1000000   0.1000000  -0.5000000   0.0120000   
   0.1000000   0.2000000   0.0000000   0.0240000   
   0.1000000   0.2000000   0.1000000   0.0480000   
   0.1000000   0.2000000   0.2000000   0.0480000   
   0.1000000   0.2000000   0.3000000   0.0480000   
   0.1000000   0.2000000   0.4000000   0.0480000   
   0.1000000   0.2000000  -0.5000000   0.0240000   
   0.1000000   0.3000000   0.0000000   0.0240000   
   0.1000000   0.3000000   0.1000000   0.0480000   
   0.1000000   0.3000000   0.2000000   0.0480000   
   0.1000000   0.3000000   0.3000000   0.0480000   
   0.1000000   0.3000000   0.4000000   0.0480000   
   0.1000000   0.3000000  -0.5000000   0.0240000   
   0.1000000   0.4000000   0.0000000   0.0240000   
   0.1000000   0.4000000   0.1000000   0.0480000   
   0.1000000   0.4000000   0.2000000   0.0480000   
   0.1000000   0.4000000   0.3000000   0.0480000   
   0.1000000   0.4000000   0.4000000   0.0480000   
   0.1000000   0.4000000  -0.5000000   0.0240000   
   0.2000000   0.2000000   0.0000000   0.0120000   
   0.2000000   0.2000000   0.1000000   0.0240000   
   0.2000000   0.2000000   0.2000000   0.0240000   
   0.2000000   0.2000000   0.3000000   0.0240000   
   0.2000000   0.2000000   0.4000000   0.0240000   
   0.2000000   0.2000000  -0.5000000   0.0120000   
   0.2000000   0.3000000   0.0000000   0.0240000   
   0.2000000   0.3000000   0.1000000   0.0480000   
   0.2000000   0.3000000   0.2000000   0.0480000   
   0.2000000   0.3000000   0.3000000   0.0480000   
   0.2000000   0.3000000   0.4000000   0.0480000   
   0.2000000   0.3000000  -0.5000000   0.0240000   
   0.2000000   0.4000000   0.0000000   0.0120000   
   0.2000000   0.4000000   0.1000000   0.0240000   
   0.2000000   0.4000000   0.2000000   0.0240000   
   0.2000000   0.4000000   0.3000000   0.0240000   
   0.2000000   0.4000000   0.4000000   0.0240000   
   0.2000000   0.4000000  -0.5000000   0.0120000   
   0.3000000   0.3000000   0.0000000   0.0120000   
   0.3000000   0.3000000   0.1000000   0.0240000   
   0.3000000   0.3000000   0.2000000   0.0240000   
   0.3000000   0.3000000   0.3000000   0.0240000   
   0.3000000   0.3000000   0.4000000   0.0240000   
   0.3000000   0.3000000  -0.5000000   0.0120000   