Number of volumes (nv), q-vectors (nq), normal mode (np), formula units(nm)
15 84 6 1

P	=	1500.16	V	=	104.49914	E	=	-655.32378921
0.0 0.0 0.0
-0.0
0.0
0.0
328.2402
328.2402
564.9221
0.0 0.0 0.062684
-80.6854
-80.6854
-22.2811
310.7121
310.7121
543.3644
0.0 0.0 0.125368
-118.1605
-118.1605
114.2906
273.8605
273.8605
497.3103
0.0 0.0 0.188051
-54.1386
-54.1386
247.2011
250.7406
250.7406
464.4919
0.0 0.0 0.250735
161.3492
161.3492
247.2331
247.2331
362.7742
454.1935
0.0 0.0 -0.313419
228.2409
228.2409
228.2437
228.2437
431.5287
431.572
0.0 0.115159 0.0
-63.6154
76.264
150.2382
336.6661
343.7034
541.4397
0.0 0.115159 0.062684
-94.296
25.3393
151.8
321.3566
329.8573
523.1764
0.0 0.115159 0.125368
-101.532
-66.9227
181.4532
289.2394
299.1301
484.6813
0.0 0.115159 0.188051
73.5213
84.2519
264.7583
268.1447
274.2639
457.2996
0.0 0.115159 0.250735
181.656
185.7799
261.8558
262.535
359.8207
446.3564
0.0 0.115159 -0.313419
238.7824
239.2768
243.4529
243.5278
422.366
422.7102
0.0 0.230318 0.0
-51.3356
147.9358
282.6504
357.1217
385.7568
487.2151
0.0 0.230318 0.062684
-84.3699
137.1186
289.6954
345.3471
374.4633
478.8493
0.0 0.230318 0.125368
-94.8497
131.7077
310.3179
320.5637
344.9485
463.8811
0.0 0.230318 0.188051
78.1264
172.3997
302.8788
309.4404
348.4628
455.4818
0.0 0.230318 0.250735
183.5063
233.4756
280.6261
295.1061
394.8164
449.7682
0.0 0.230318 -0.313419
243.6378
245.8916
277.2672
277.3266
431.5352
432.8978
0.0 0.345476 0.0
157.5786
206.0685
380.9113
383.8426
437.2653
439.9254
0.0 0.345476 0.062684
136.4313
198.0698
369.7278
386.9086
407.0958
458.9927
0.0 0.345476 0.125368
103.8883
193.648
346.5284
360.4025
407.5483
470.7472
0.0 0.345476 0.188051
132.3139
222.92
324.0852
330.7377
431.5151
480.3366
0.0 0.345476 0.250735
199.4424
272.5962
293.8487
324.8797
459.7443
486.0514
0.0 0.345476 -0.313419
255.6887
257.0564
310.1407
310.1971
479.9174
480.6238
0.0 0.460635 0.0
242.0723
269.9715
400.5053
408.9482
447.7615
483.6094
0.0 0.460635 0.062684
230.3121
250.0826
387.3011
392.4225
449.1901
485.7228
0.0 0.460635 0.125368
212.5125
217.3674
359.9692
360.6179
456.7261
493.4798
0.0 0.460635 0.188051
209.5682
241.9268
335.1871
344.9309
478.2444
509.3699
0.0 0.460635 0.250735
252.1053
292.9928
320.3692
343.1561
507.6673
525.6915
0.0 0.460635 -0.313419
295.9128
296.8774
331.4155
331.4414
526.738
527.4864
0.0 -0.575794 0.0
253.7955
320.3228
394.9422
408.3412
470.1158
499.7224
0.0 -0.575794 0.062684
239.6738
297.6055
382.8804
393.8681
468.2086
498.719
0.0 -0.575794 0.125368
221.8215
253.2039
357.4009
364.8561
470.9058
503.6507
0.0 -0.575794 0.188051
241.4517
244.9606
341.0993
348.865
491.7324
521.6031
0.0 -0.575794 0.250735
277.8711
298.5153
335.92
349.0865
524.3218
542.0173
0.0 -0.575794 -0.313419
317.4437
319.4085
338.4642
338.5491
544.8539
546.2962
0.09973 0.172738 0.0
-74.3418
131.9272
246.1613
353.991
370.6248
502.3117
0.09973 0.172738 0.062684
-100.0021
120.3222
251.782
342.5526
359.1578
490.4657
0.09973 0.172738 0.125368
-106.6232
115.0932
272.3263
318.8707
330.4149
467.2538
0.09973 0.172738 0.188051
70.6432
159.8316
295.895
299.2113
322.1594
452.4269
0.09973 0.172738 0.250735
182.6843
223.2574
274.888
289.3819
378.2111
444.6041
0.09973 0.172738 -0.313419
240.2396
241.1176
271.2822
271.8106
423.8177
423.9225
0.09973 0.287897 0.0
89.4788
194.3095
329.897
391.2842
415.0637
448.9164
0.09973 0.287897 0.062684
54.9504
191.4521
332.9829
383.394
396.8928
454.1403
0.09973 0.287897 0.125368
-44.4369
196.2761
335.0282
352.392
384.9134
459.2806
0.09973 0.287897 0.188051
85.1431
225.6718
312.8204
331.8325
402.2289
464.005
0.09973 0.287897 0.250735
174.1931
261.1585
288.3732
324.3706
432.0893
465.7413
0.09973 0.287897 -0.313419
234.593
236.1684
308.2567
308.9933
455.9207
456.5729
0.09973 0.403056 0.0
210.4933
241.2984
376.5695
408.1093
433.5757
464.6755
0.09973 0.403056 0.062684
191.1676
237.7664
372.1386
389.0528
435.1841
467.8065
0.09973 0.403056 0.125368
156.7662
239.0223
345.4981
369.3665
439.6226
476.2771
0.09973 0.403056 0.188051
161.1915
262.1003
316.2845
359.0189
458.2105
489.2984
0.09973 0.403056 0.250735
209.1414
280.7837
314.0629
353.1126
483.9202
501.294
0.09973 0.403056 -0.313419
255.7433
256.1896
339.8675
340.2519
501.0416
501.1566
0.09973 0.518215 0.0
264.7027
291.1135
382.3971
401.9361
457.1008
495.257
0.09973 0.518215 0.062684
251.3555
277.0438
366.4566
397.4779
456.3155
492.547
0.09973 0.518215 0.125368
219.175
263.7971
335.3409
384.3137
460.9488
494.2425
0.09973 0.518215 0.188051
211.5592
282.5642
314.1593
374.2975
481.5137
509.1082
0.09973 0.518215 0.250735
246.0777
300.9391
327.3107
371.2749
511.1792
527.0438
0.09973 0.518215 -0.313419
283.0965
284.3959
359.0581
359.4415
529.5905
530.7056
0.199461 0.345476 0.0
169.874
250.3996
350.398
402.7045
437.3801
450.346
0.199461 0.345476 0.062684
151.9722
252.2401
353.7668
381.3671
445.5725
446.4725
0.199461 0.345476 0.125368
120.9878
260.9906
343.8866
360.788
439.3723
458.684
0.199461 0.345476 0.188051
131.0388
273.2905
318.0183
364.068
447.67
472.1606
0.199461 0.345476 0.250735
181.7196
261.7392
328.5559
360.1856
468.493
483.5631
0.199461 0.345476 -0.313419
229.7389
230.7758
348.1394
348.8016
483.6598
483.6881
0.199461 0.460635 0.0
238.0411
292.5959
360.0482
377.0133
442.3886
486.2305
0.199461 0.460635 0.062684
222.3468
293.6138
348.1952
381.4495
443.7363
480.5212
0.199461 0.460635 0.125368
192.6437
293.5427
329.0398
389.5477
450.2431
473.3921
0.199461 0.460635 0.188051
184.4863
278.6074
337.6503
393.7678
465.3528
481.2261
0.199461 0.460635 0.250735
208.7673
261.2124
361.7548
391.4043
487.1072
496.0802
0.199461 0.460635 -0.313419
239.4021
239.939
381.562
381.7114
500.1247
500.5108
P	=	1999.87	V	=	99.17208	E	=	-655.26075621
0.0 0.0 0.0
-0.0
-0.0
0.0
358.2849
358.2849
616.3168
0.0 0.0 0.062655
-74.8922
-74.8922
42.3444
340.403
340.403
595.4985
0.0 0.0 0.12531
-104.6965
-104.6965
146.9898
301.7236
301.7236
550.4213
0.0 0.0 0.187965
46.181
46.181
273.9242
273.9242
279.888
515.6508
0.0 0.0 0.25062
180.0501
180.0501
265.0141
265.0141
397.7794
499.6627
0.0 0.0 -0.313275
243.8807
243.8807
243.8807
243.8807
470.8921
470.8921
0.0 0.115193 0.0
-63.1465
79.4833
164.7147
363.988
373.4459
591.7923
0.0 0.115193 0.062655
-85.4796
45.6109
172.3375
348.7608
359.6232
574.6458
0.0 0.115193 0.12531
-75.592
-30.6752
212.5642
315.8734
328.1753
537.6343
0.0 0.115193 0.187965
110.56
111.902
291.2314
299.1702
300.1078
508.113
0.0 0.115193 0.25062
202.4102
202.6851
280.5591
282.605
394.9602
491.0307
0.0 0.115193 -0.313275
257.155
257.155
258.8047
258.8047
461.0122
461.0122
0.0 0.230387 0.0
-33.5509
155.7242
309.6972
380.7677
417.4495
534.7052
0.0 0.230387 0.062655
-60.1536
148.8919
319.6048
369.9301
407.023
528.1392
0.0 0.230387 0.12531
-42.3161
150.9148
345.434
346.4159
379.4397
515.1747
0.0 0.230387 0.187965
124.2322
191.5443
327.1693
342.2445
386.2947
504.5921
0.0 0.230387 0.25062
209.0806
249.6412
307.427
314.9331
431.6791
493.3508
0.0 0.230387 -0.313275
267.2274
267.2274
293.5196
293.5196
470.5549
470.5549
0.0 0.34558 0.0
175.783
219.467
406.0686
420.1472
478.2356
480.6801
0.0 0.34558 0.062655
162.714
214.3747
396.0834
424.6178
447.9578
503.7589
0.0 0.34558 0.12531
147.1142
215.1677
374.7851
400.8028
450.2882
519.6535
0.0 0.34558 0.187965
170.8398
244.9409
358.1103
361.9864
475.3185
529.4902
0.0 0.34558 0.25062
225.6604
292.3177
323.9438
348.2222
502.3461
531.8912
0.0 0.34558 -0.313275
280.2433
280.2433
330.0308
330.0308
523.0106
523.0106
0.0 0.460774 0.0
260.3522
292.2824
430.9904
448.3629
490.2607
528.98
0.0 0.460774 0.062655
251.5794
275.9425
418.5074
432.457
493.2505
533.5153
0.0 0.460774 0.12531
244.5233
245.5466
392.6692
400.5685
503.7042
545.2608
0.0 0.460774 0.187965
242.4334
270.144
372.7293
375.3518
526.5046
561.8581
0.0 0.460774 0.25062
278.0818
318.3737
350.9309
369.8384
555.4633
575.6219
0.0 0.460774 -0.313275
321.2396
321.2396
355.7858
355.7858
574.9512
574.9512
0.0 -0.575967 0.0
274.0828
344.3084
432.9151
441.6584
515.0435
547.8599
0.0 -0.575967 0.062655
263.1676
324.3655
421.6508
427.5717
514.3387
548.8811
0.0 -0.575967 0.12531
251.9318
285.3417
396.9619
398.6654
519.5761
557.1875
0.0 -0.575967 0.187965
273.6581
276.4652
377.7815
380.489
541.5875
575.7679
0.0 -0.575967 0.25062
304.7421
326.6819
366.1522
377.1141
573.8284
594.0227
0.0 -0.575967 -0.313275
344.0115
344.0115
364.9
364.9
595.4753
595.4753
0.09976 0.17279 0.0
-68.789
139.4769
268.8508
379.3152
400.6885
550.6949
0.09976 0.17279 0.062655
-85.4146
132.5898
277.7413
368.7675
389.8257
540.5458
0.09976 0.17279 0.12531
-71.2667
136.1476
303.9599
346.7847
362.0406
519.3966
0.09976 0.17279 0.187965
115.2175
180.2237
320.6092
329.4133
358.357
502.1033
0.09976 0.17279 0.25062
205.2995
239.952
300.0528
309.4847
414.521
487.8906
0.09976 0.17279 -0.313275
260.4864
260.4864
289.0051
289.0051
461.7086
461.7086
0.09976 0.287984 0.0
108.1081
207.694
356.2659
421.4205
449.0253
493.6926
0.09976 0.287984 0.062655
92.9974
207.8245
360.7463
415.8541
432.9079
500.42
0.09976 0.287984 0.12531
83.0637
217.5926
363.8678
389.9573
423.9973
508.3687
0.09976 0.287984 0.187965
130.6192
247.4085
347.0237
361.5318
443.3507
512.2497
0.09976 0.287984 0.25062
198.8322
281.8647
315.7762
348.5775
471.9636
509.6402
0.09976 0.287984 -0.313275
256.6373
256.6373
329.5729
329.5729
496.3627
496.3627
0.09976 0.403177 0.0
230.9421
259.6009
405.718
448.4155
471.1522
506.0999
0.09976 0.403177 0.062655
216.4506
259.1403
402.3116
429.0012
476.0341
512.1536
0.09976 0.403177 0.12531
192.1676
265.388
381.312
406.2699
484.3515
525.412
0.09976 0.403177 0.187965
195.4629
289.0995
351.6777
392.7662
504.2638
539.3904
0.09976 0.403177 0.25062
233.3352
306.5575
341.9472
381.938
528.9902
548.5499
0.09976 0.403177 -0.313275
277.7803
277.7803
365.6568
365.6568
545.9578
545.9578
0.09976 0.518371 0.0
285.984
314.6019
419.3625
434.9323
499.6782
541.0703
0.09976 0.518371 0.062655
275.366
304.0425
402.8011
433.0398
500.4993
540.5326
0.09976 0.518371 0.12531
250.3352
295.6795
371.7878
421.8871
508.2237
546.179
0.09976 0.518371 0.187965
243.4921
314.6827
347.9839
410.3453
530.1467
561.9505
0.09976 0.518371 0.25062
271.2159
328.003
357.3441
403.0054
559.3315
577.4769
0.09976 0.518371 -0.313275
306.6353
306.6353
388.1342
388.1342
578.4348
578.4348
0.199521 0.34558 0.0
189.7704
270.9643
377.121
443.1392
473.2668
488.6458
0.199521 0.34558 0.062655
178.706
275.0582
383.0375
420.4627
485.5425
487.8747
0.199521 0.34558 0.12531
161.1015
287.3387
383.8159
394.1529
482.7197
505.9153
0.199521 0.34558 0.187965
168.099
300.7703
354.5335
397.6633
492.446
520.3766
0.199521 0.34558 0.25062
205.3289
287.2851
357.0572
390.2661
511.807
528.6847
0.199521 0.34558 -0.313275
250.5131
250.5131
375.4738
375.4738
526.3438
526.3438
0.199521 0.460774 0.0
260.7066
317.3093
395.6147
408.5774
480.6212
528.0393
0.199521 0.460774 0.062655
249.0587
320.8191
384.4701
416.1896
484.8444
524.0686
0.199521 0.460774 0.12531
226.9301
325.2777
366.6478
428.1421
495.9361
520.8901
0.199521 0.460774 0.187965
217.9693
311.3179
372.6102
432.1837
512.2038
530.5471
0.199521 0.460774 0.25062
232.9201
287.4041
393.9202
426.0887
532.6468
543.0253
0.199521 0.460774 -0.313275
260.3966
260.3966
413.2504
413.2504
545.2264
545.2264
P	=	3000.05	V	=	91.28595	E	=	-655.12832909
0.0 0.0 0.0
-0.0
-0.0
0.0
390.5159
390.5159
699.9878
0.0 0.0 0.06261
-75.7028
-75.7028
68.2222
372.6644
372.6644
679.0431
0.0 0.0 0.12522
-103.1095
-103.1095
182.3801
333.8043
333.8043
632.658
0.0 0.0 0.18783
69.3382
69.3382
304.3506
304.3506
322.9122
593.1244
0.0 0.0 0.25044
198.1847
198.1847
291.6895
291.6895
448.7698
568.6796
0.0 0.0 -0.31305
266.1205
266.1205
266.1205
266.1205
530.5453
530.5453
0.0 0.115227 0.0
-67.6179
75.4877
184.8133
395.8209
409.0352
673.4565
0.0 0.115227 0.06261
-82.1948
41.1328
197.4836
380.6015
395.277
656.3633
0.0 0.115227 0.12522
-54.1531
-15.2947
249.2949
347.2932
363.5639
618.2631
0.0 0.115227 0.18783
125.6611
132.6629
320.5451
333.4633
345.0205
584.0298
0.0 0.115227 0.25044
219.5183
223.5011
305.8547
311.7762
447.1206
558.7845
0.0 0.115227 -0.31305
279.6624
279.6624
281.6172
281.6172
520.2307
520.2307
0.0 0.230453 0.0
-18.8118
157.8566
349.1497
413.3157
463.16
610.8603
0.0 0.230453 0.06261
-34.7225
153.1144
361.4406
402.464
452.8383
604.6777
0.0 0.230453 0.12522
64.0569
160.6697
378.3271
392.4229
425.4312
591.0517
0.0 0.230453 0.18783
156.5972
206.0871
356.6992
384.5223
439.6224
576.6382
0.0 0.230453 0.25044
236.4416
267.4417
340.4205
343.7979
488.4959
559.3445
0.0 0.230453 -0.31305
297.2453
297.2453
314.8081
314.8081
531.03
531.03
0.0 0.34568 0.0
198.1704
235.139
443.6053
476.162
538.5618
549.323
0.0 0.34568 0.06261
189.6184
230.958
433.2439
480.944
509.4873
572.7616
0.0 0.34568 0.12522
182.1884
234.2407
410.728
456.2106
512.4482
591.6386
0.0 0.34568 0.18783
205.9914
266.9203
391.8445
412.32
539.9968
601.7791
0.0 0.34568 0.25044
257.9246
317.1316
366.3821
379.038
568.7774
602.1673
0.0 0.34568 -0.31305
315.2263
315.2263
357.7931
357.7931
591.0156
591.0156
0.0 0.460906 0.0
288.2617
324.7933
476.1774
510.204
558.1755
601.7347
0.0 0.460906 0.06261
279.6949
309.9251
462.5332
492.9172
561.9993
607.9587
0.0 0.460906 0.12522
273.8156
282.2926
434.0515
457.8129
574.3997
622.7218
0.0 0.460906 0.18783
279.6549
301.7638
414.35
424.7968
599.5261
640.8637
0.0 0.460906 0.25044
314.5761
352.7618
396.154
407.5292
630.6208
654.1917
0.0 0.460906 -0.31305
360.3805
360.3805
392.3048
392.3048
652.0102
652.0102
0.0 -0.576133 0.0
306.7577
380.6129
490.5933
492.2496
587.4917
625.301
0.0 -0.576133 0.06261
295.9442
361.587
474.9286
480.1614
586.9871
627.5941
0.0 -0.576133 0.12522
285.8069
324.158
442.5632
453.0752
593.4425
638.3105
0.0 -0.576133 0.18783
312.678
312.7291
421.7674
429.6041
617.672
658.3079
0.0 -0.576133 0.25044
343.4594
365.6386
412.2737
417.8247
652.4236
676.3631
0.0 -0.576133 -0.31305
385.1113
385.1113
405.4387
405.4387
676.3394
676.3394
0.099789 0.17284 0.0
-70.3055
141.2809
300.5774
413.7318
441.6539
628.5431
0.099789 0.17284 0.06261
-77.5075
136.8876
312.3354
403.5155
430.8918
618.7267
0.099789 0.17284 0.12522
-24.9114
146.734
343.5449
383.3579
402.9029
596.8214
0.099789 0.17284 0.18783
143.7743
195.4754
351.1403
367.9949
408.536
575.1945
0.099789 0.17284 0.25044
229.092
258.0555
333.3686
336.0393
469.2875
553.9379
0.099789 0.17284 -0.31305
285.3863
285.3863
313.0596
313.0596
521.1166
521.1166
0.099789 0.288066 0.0
125.8782
221.4683
393.1181
468.3783
500.9148
564.6375
0.099789 0.288066 0.06261
118.7655
223.2625
397.8632
464.307
486.1527
571.494
0.099789 0.288066 0.12522
121.4252
236.6107
400.1873
440.2986
480.0139
580.2735
0.099789 0.288066 0.18783
163.0321
269.2196
386.9518
402.9712
502.9706
582.7257
0.099789 0.288066 0.25044
225.5546
306.3694
353.1999
381.3955
533.4595
576.4368
0.099789 0.288066 -0.31305
284.7535
284.7535
359.2159
359.2159
559.7589
559.7589
0.099789 0.403293 0.0
258.7029
284.9639
447.8854
511.2837
530.0964
571.7956
0.099789 0.403293 0.06261
245.8198
286.118
444.1536
488.3385
538.7513
580.448
0.099789 0.403293 0.12522
225.1065
294.8696
425.9452
458.9168
550.5205
597.9046
0.099789 0.403293 0.18783
228.0755
320.3447
396.7283
438.7021
572.9418
613.5273
0.099789 0.403293 0.25044
263.157
340.3146
381.1909
423.2509
599.068
621.6372
0.099789 0.403293 -0.31305
309.039
309.039
403.9047
403.9047
617.3085
617.3085
0.099789 0.518519 0.0
318.0689
349.2056
476.5041
482.5259
566.5865
614.3463
0.099789 0.518519 0.06261
307.4237
340.6227
454.7182
484.694
568.5673
615.3749
0.099789 0.518519 0.12522
284.3408
334.327
420.032
473.6775
579.046
624.1271
0.099789 0.518519 0.18783
278.1208
354.4464
392.3142
460.1656
603.7112
641.5332
0.099789 0.518519 0.25044
304.2959
366.127
400.0936
450.0064
634.9452
656.501
0.099789 0.518519 -0.31305
340.7883
340.7883
432.6845
432.6845
655.8426
655.8426
0.199578 0.34568 0.0
214.8223
298.7275
414.6262
505.796
527.7828
549.0669
0.199578 0.34568 0.06261
206.7554
303.6214
422.8729
477.0722
546.901
550.506
0.199578 0.34568 0.12522
194.0311
317.3791
436.9612
437.6944
546.5242
574.6681
0.199578 0.34568 0.18783
199.2103
332.177
402.4227
441.9924
558.4224
590.9691
0.199578 0.34568 0.25044
231.2059
319.1697
397.3676
432.613
578.3588
597.7387
0.199578 0.34568 -0.31305
277.2782
277.2782
415.3225
415.3225
593.53
593.53
0.199578 0.460906 0.0
292.17
351.8732
449.2982
452.7387
537.5144
593.6792
0.199578 0.460906 0.06261
281.8018
357.0981
435.3285
464.8113
545.4336
590.9687
0.199578 0.460906 0.12522
261.8327
364.4021
415.9739
480.3506
562.3252
591.2438
0.199578 0.460906 0.18783
250.7968
350.8089
419.0431
484.9487
581.552
603.382
0.199578 0.460906 0.25044
260.3754
320.5419
440.0422
476.6267
602.6479
615.0648
0.199578 0.460906 -0.31305
287.3918
287.3918
460.9258
460.9258
615.7465
615.7465
P	=	3200.14	V	=	90.00248	E	=	-655.10128688
0.0 0.0 0.0
-0.0
0.0
0.0
391.5978
391.5978
714.9591
0.0 0.0 0.062604
-73.7471
-73.7471
74.2955
375.022
375.022
694.2153
0.0 0.0 0.125208
-99.3597
-99.3597
190.293
338.9957
338.9957
647.9186
0.0 0.0 0.187811
75.2649
75.2649
311.1332
311.1332
331.0454
607.3032
0.0 0.0 0.250415
200.4245
200.4245
297.1296
297.1296
457.2148
580.5593
0.0 0.0 -0.313019
269.2668
269.2668
269.2668
269.2668
540.2079
540.2079
0.0 0.115229 0.0
-64.8615
75.6875
188.7686
398.5683
412.3617
688.4158
0.0 0.115229 0.062604
-77.6057
45.9179
203.1902
384.3596
399.6571
671.4462
0.0 0.115229 0.125208
-38.8378
29.4389
257.5375
353.1575
370.1017
633.3093
0.0 0.115229 0.187811
131.0299
138.8991
327.314
340.9186
354.0822
598.1023
0.0 0.115229 0.250415
222.7003
227.2705
311.2635
317.8276
456.4965
570.9619
0.0 0.115229 -0.313019
283.224
283.224
285.7308
285.7308
530.592
530.592
0.0 0.230457 0.0
32.2562
159.8251
356.7348
419.1037
470.9068
625.4792
0.0 0.230457 0.062604
20.6162
156.6171
369.9432
408.7316
461.177
619.2612
0.0 0.230457 0.125208
79.7383
166.7016
385.4019
402.3612
434.8122
605.4232
0.0 0.230457 0.187811
165.3987
212.0351
363.6428
393.5818
450.5031
590.3775
0.0 0.230457 0.250415
243.0475
272.1923
346.0952
351.4715
499.596
572.0115
0.0 0.230457 -0.313019
303.6284
303.6284
319.3824
319.3824
542.6638
542.6638
0.0 0.345686 0.0
205.1347
239.2989
451.1705
486.5236
549.6993
562.7092
0.0 0.345686 0.062604
197.1522
235.8545
440.9347
491.7232
521.2213
585.9545
0.0 0.345686 0.125208
190.8563
240.4479
418.501
467.1682
524.6389
605.3669
0.0 0.345686 0.187811
214.6368
273.348
399.135
422.4953
552.5649
615.5104
0.0 0.345686 0.250415
265.7759
322.9966
375.2407
385.3884
581.3123
615.3705
0.0 0.345686 -0.313019
323.0643
323.0643
363.5107
363.5107
603.6843
603.6843
0.0 0.460915 0.0
293.6336
331.0941
484.2207
521.7945
570.0358
614.6536
0.0 0.460915 0.062604
285.4284
316.6228
470.5554
504.2206
574.3204
621.4524
0.0 0.460915 0.125208
280.2723
289.8563
441.9329
468.6691
587.4641
637.021
0.0 0.460915 0.187811
287.4837
308.4693
421.8301
434.7792
612.9207
655.2845
0.0 0.460915 0.250415
321.959
359.3218
404.7728
414.4651
643.9642
668.1276
0.0 0.460915 -0.313019
367.9088
367.9088
398.8861
398.8861
665.4584
665.4584
0.0 -0.576144 0.0
312.4072
386.7236
498.7054
503.0549
599.7719
638.7704
0.0 -0.576144 0.062604
301.8644
368.1403
482.9724
490.8899
599.6173
641.5468
0.0 -0.576144 0.125208
292.326
331.6237
450.4036
463.5415
606.7487
652.9959
0.0 -0.576144 0.187811
319.552
320.3921
429.2673
439.2443
631.3087
673.0675
0.0 -0.576144 0.250415
350.6315
372.4691
420.5415
424.9562
666.0241
690.5985
0.0 -0.576144 -0.313019
392.328
392.328
412.3388
412.3388
690.0648
690.0648
0.099791 0.172843 0.0
-62.2736
143.0722
306.711
419.3381
447.9182
643.3253
0.099791 0.172843 0.062604
-68.4892
140.4615
319.5313
409.8106
437.8789
633.5164
0.099791 0.172843 0.125208
36.3778
153.0592
352.0277
391.3351
411.1931
611.4224
0.099791 0.172843 0.187811
151.9823
201.4059
358.2756
376.4714
418.8394
589.0404
0.099791 0.172843 0.250415
234.6929
262.5617
340.4688
341.8699
479.9222
566.4917
0.099791 0.172843 -0.313019
290.4086
290.4086
318.0485
318.0485
532.4304
532.4304
0.099791 0.288072 0.0
134.6723
225.5178
400.3748
477.541
510.5733
578.6059
0.099791 0.288072 0.062604
128.3596
228.294
405.5462
473.9738
496.502
585.275
0.099791 0.288072 0.125208
131.9566
243.2148
408.2631
450.5976
491.4392
594.0673
0.099791 0.288072 0.187811
172.0595
275.9598
395.212
412.3226
514.935
596.3025
0.099791 0.288072 0.250415
232.8566
312.3384
361.4176
388.4549
545.4514
589.3507
0.099791 0.288072 -0.313019
291.494
291.494
365.5756
365.5756
571.9977
571.9977
0.099791 0.4033 0.0
265.6894
290.4829
455.7348
523.6048
540.8347
583.8271
0.099791 0.4033 0.062604
252.9401
292.3826
452.2544
499.7876
550.5391
593.2344
0.099791 0.4033 0.125208
232.9052
302.1377
434.7522
469.5705
563.2257
611.6535
0.099791 0.4033 0.187811
235.9206
327.7303
405.835
448.1268
586.019
627.4752
0.099791 0.4033 0.250415
270.2613
347.4257
389.3583
431.4467
612.0316
635.127
0.099791 0.4033 -0.313019
315.9681
315.9681
411.4081
411.4081
630.321
630.321
0.099791 0.518529 0.0
323.9703
355.8463
487.3681
490.5109
578.029
627.2822
0.099791 0.518529 0.062604
313.6866
347.7367
464.1177
494.2506
580.5904
628.8642
0.099791 0.518529 0.125208
291.4615
342.2297
429.2204
483.5145
592.0915
638.497
0.099791 0.518529 0.187811
285.4516
362.4862
400.9837
469.697
617.2215
656.0414
0.099791 0.518529 0.250415
310.9212
373.4112
408.1559
458.7279
648.3616
670.4656
0.099791 0.518529 -0.313019
347.2561
347.2561
440.765
440.765
669.2998
669.2998
0.199582 0.345686 0.0
222.7637
304.9303
421.8753
518.4474
537.8217
560.4886
0.199582 0.345686 0.062604
214.8393
310.4262
430.9106
488.2335
558.7363
562.575
0.199582 0.345686 0.125208
202.5942
325.0776
446.8512
447.7909
559.1384
587.9216
0.199582 0.345686 0.187811
207.5317
339.8333
412.6587
451.2974
571.3195
604.5492
0.199582 0.345686 0.250415
238.4401
326.5004
406.0303
441.183
591.046
610.9174
0.199582 0.345686 -0.313019
284.1378
284.1378
423.3186
423.3186
606.2315
606.2315
0.199582 0.460915 0.0
299.9853
358.659
460.3533
460.3809
547.4574
605.5431
0.199582 0.460915 0.062604
289.625
364.6736
445.402
474.0275
556.5489
603.3771
0.199582 0.460915 0.125208
270.038
373.0386
426.1822
490.6572
575.0481
604.7133
0.199582 0.460915 0.187811
258.7826
359.4808
428.9102
495.5114
594.8397
617.2166
0.199582 0.460915 0.250415
267.2228
328.0038
449.2461
486.4618
615.6717
628.4302
0.199582 0.460915 -0.313019
293.8318
293.8318
470.015
470.015
628.65
628.65
P	=	3399.93	V	=	88.79265	E	=	-655.0741498
0.0 0.0 0.0
0.0
0.0
0.0
392.2036
392.2036
729.5397
0.0 0.0 0.062597
-69.809
-69.809
81.6676
377.3038
377.3038
709.1673
0.0 0.0 0.125195
-91.6991
-91.6991
199.7394
344.8469
344.8469
663.2608
0.0 0.0 0.187792
84.8206
84.8207
318.7111
318.7111
340.019
621.5971
0.0 0.0 0.25039
203.1193
203.1193
302.7767
302.7768
465.7062
592.2729
0.0 0.0 -0.312987
272.2086
272.2086
272.2086
272.2086
549.5548
549.5548
0.0 0.115233 0.0
-61.5027
76.5071
192.889
401.0136
415.2079
703.0154
0.0 0.115233 0.062597
-70.1924
53.9788
209.7214
388.2528
404.0018
686.3687
0.0 0.115233 0.125195
27.79
53.0293
267.2055
359.9561
377.4138
648.5518
0.0 0.115233 0.187792
139.0444
147.6869
335.1607
349.3193
364.1047
612.4273
0.0 0.115233 0.25039
226.3906
231.5588
317.0659
324.194
466.0334
583.0887
0.0 0.115233 -0.312987
286.6646
286.6646
289.6839
289.6839
540.7322
540.7322
0.0 0.230466 0.0
50.9294
162.2939
364.333
424.9005
478.2076
639.7857
0.0 0.230466 0.062597
50.5338
161.6686
378.9358
415.486
469.5514
633.7892
0.0 0.230466 0.125195
98.3847
175.5972
393.8109
413.3559
445.1349
620.1965
0.0 0.230466 0.187792
176.8112
220.1067
372.0186
403.6754
462.3577
604.6009
0.0 0.230466 0.25039
250.3926
277.5164
352.3742
359.5623
510.9397
584.7908
0.0 0.230466 -0.312987
309.9634
309.9634
323.9352
323.9352
554.1655
554.1655
0.0 0.345699 0.0
212.2196
243.4696
458.8026
496.4795
560.4924
575.7797
0.0 0.345699 0.062597
205.6105
241.5619
449.1484
502.4481
533.0524
599.1169
0.0 0.345699 0.125195
201.8284
248.6717
427.5906
478.7808
537.5359
619.5217
0.0 0.345699 0.187792
225.4121
281.5002
407.7824
433.5317
565.7784
629.6883
0.0 0.345699 0.25039
274.3639
329.3431
384.4428
392.2556
593.9271
628.5907
0.0 0.345699 -0.312987
330.8983
330.8983
369.1559
369.1559
616.1042
616.1042
0.0 0.460933 0.0
298.7462
337.2483
492.02
533.0456
581.2072
627.1949
0.0 0.460933 0.062597
291.5239
323.6489
478.7571
515.4592
586.265
634.811
0.0 0.460933 0.125195
288.1075
298.6425
450.7593
479.993
600.6488
651.5453
0.0 0.460933 0.187792
296.5945
316.3959
430.3446
445.3348
626.4848
669.8981
0.0 0.460933 0.25039
329.7434
366.1095
413.5234
421.7061
657.1114
681.8755
0.0 0.460933 -0.312987
375.3021
375.3021
405.2545
405.2545
678.4904
678.4904
0.0 -0.576166 0.0
317.7476
392.5342
506.3602
513.5341
611.2908
651.8014
0.0 -0.576166 0.062597
308.0131
374.7825
490.9704
501.5456
611.7293
655.2644
0.0 -0.576166 0.125195
299.9627
339.9214
458.9683
474.388
619.948
667.7585
0.0 -0.576166 0.187792
327.3386
329.0252
437.6371
449.3213
644.8989
687.8749
0.0 -0.576166 0.25039
358.02
379.3785
428.8318
432.3005
679.298
704.549
0.0 -0.576166 -0.312987
399.323
399.323
418.9542
418.9542
703.3007
703.3007
0.099795 0.17285 0.0
-51.6792
145.4953
312.8903
424.933
453.7208
657.7874
0.099795 0.17285 0.062597
-53.881
145.766
327.2837
416.5788
444.8776
648.2287
0.099795 0.17285 0.125195
65.477
162.3841
361.644
400.6879
420.3435
626.3796
0.099795 0.17285 0.187792
162.9056
209.4853
366.7493
385.9994
430.1808
603.3234
0.099795 0.17285 0.25039
240.9963
267.6374
347.9597
348.2764
490.8199
579.1367
0.099795 0.17285 -0.312987
295.3406
295.3406
323.0115
323.0115
543.6184
543.6184
0.099795 0.288083 0.0
143.645
229.8165
407.5587
486.6983
519.9671
592.2792
0.099795 0.288083 0.062597
139.2669
234.3874
413.677
483.9449
507.0832
599.054
0.099795 0.288083 0.125195
145.6387
251.9914
417.6586
461.6918
503.9073
608.3328
0.099795 0.288083 0.187792
183.7854
284.5408
404.6812
422.8231
527.7986
610.3996
0.099795 0.288083 0.25039
241.0574
318.9199
369.9846
396.0987
557.6797
602.3736
0.099795 0.288083 -0.312987
298.2594
298.2594
371.9179
371.9179
584.094
584.094
0.099795 0.403316 0.0
272.7642
295.9274
463.5635
535.6281
551.2329
595.6421
0.099795 0.403316 0.062597
260.7451
299.2422
460.786
511.2505
562.3076
606.0685
0.099795 0.403316 0.125195
242.5602
310.9715
444.5757
480.9975
576.4159
625.8178
0.099795 0.403316 0.187792
245.6537
336.5617
415.813
458.5815
599.5817
641.7929
0.099795 0.403316 0.25039
278.0764
355.0073
397.7611
440.0384
625.0122
648.5711
0.099795 0.403316 -0.312987
322.9101
322.9101
418.799
418.799
643.0563
643.0563
0.099795 0.518549 0.0
329.7475
362.3525
497.9601
498.3307
588.9975
639.9053
0.099795 0.518549 0.062597
320.3259
355.1622
473.5197
504.0326
592.3519
642.2685
0.099795 0.518549 0.125195
299.8095
351.2059
439.0737
494.0954
605.227
653.1133
0.099795 0.518549 0.187792
294.0535
371.5146
410.376
480.0372
630.8242
670.7553
0.099795 0.518549 0.25039
317.9774
380.9423
416.3524
467.6917
661.552
684.2723
0.099795 0.518549 -0.312987
353.6341
353.6341
448.6481
448.6481
682.3649
682.3649
0.19959 0.345699 0.0
230.9745
311.1814
429.2127
530.8379
547.8501
571.8208
0.19959 0.345699 0.062597
223.9177
317.923
439.4719
499.5468
570.8448
574.7951
0.19959 0.345699 0.125195
213.4764
334.4288
457.1831
459.393
572.5934
601.6434
0.19959 0.345699 0.187792
218.1956
349.0711
423.7128
461.7484
585.023
618.5447
0.19959 0.345699 0.25039
246.6567
334.4385
414.977
450.1656
603.9689
624.1108
0.19959 0.345699 -0.312987
291.1537
291.1537
431.2203
431.2203
618.7727
618.7727
0.19959 0.460933 0.0
307.9806
365.5831
468.2048
471.2301
557.5754
617.3059
0.19959 0.460933 0.062597
298.1302
372.843
455.6913
483.7299
567.937
615.9834
0.19959 0.460933 0.125195
279.8642
382.9355
437.2193
501.9034
588.2515
618.7852
0.19959 0.460933 0.187792
268.5145
369.3384
439.5995
506.9955
608.5827
631.5083
0.19959 0.460933 0.25039
274.9227
336.02
458.6452
496.6145
628.7481
641.8137
0.19959 0.460933 -0.312987
300.4873
300.4873
478.981
478.981
641.3506
641.3506
P	=	3599.96	V	=	87.62812	E	=	-655.04643654
0.0 0.0 0.0
-0.0
0.0
0.0
396.3255
396.3255
743.7489
0.0 0.0 0.06259
-64.8467
-64.8467
88.5168
382.5484
382.5484
723.8103
0.0 0.0 0.12518
-81.057
-81.057
208.9184
352.2531
352.2531
678.4676
0.0 0.0 0.187769
96.8892
96.8892
326.5526
326.5526
348.9971
635.99
0.0 0.0 0.250359
207.5178
207.5178
308.5112
308.5112
474.3803
604.2573
0.0 0.0 -0.312949
275.9157
275.9157
275.9157
275.9157
559.1879
559.1879
0.0 0.115238 0.0
-57.3317
79.1463
197.6675
405.7572
420.1543
717.2522
0.0 0.115238 0.06259
-60.6351
63.88
216.8772
394.162
410.1983
701.0006
0.0 0.115238 0.12518
58.7765
72.6845
277.2669
368.0246
385.9315
663.6751
0.0 0.115238 0.187769
148.7608
157.999
343.5365
358.307
374.3306
626.7976
0.0 0.115238 0.250359
231.2546
237.1104
323.1908
331.0077
475.6986
595.3354
0.0 0.115238 -0.312949
290.7167
290.7167
294.3808
294.3808
550.993
550.993
0.0 0.230476 0.0
65.5196
165.834
372.2924
431.2538
485.7278
653.7865
0.0 0.230476 0.06259
70.5114
168.0842
388.4329
422.9502
478.3295
648.109
0.0 0.230476 0.12518
116.5409
186.0112
403.1651
424.9902
456.1451
634.9505
0.0 0.230476 0.187769
189.4083
229.3652
381.2987
414.6198
474.5607
618.8763
0.0 0.230476 0.250359
258.6215
283.4376
359.2216
368.3267
522.2995
597.5177
0.0 0.230476 -0.312949
316.8757
316.8757
328.8214
328.8214
565.5322
565.5322
0.0 0.345714 0.0
219.2154
247.438
466.5075
506.0827
571.1985
588.6653
0.0 0.345714 0.06259
214.3658
247.6525
457.7498
513.2658
544.8027
612.2801
0.0 0.345714 0.12518
213.797
258.1749
437.6209
490.9965
550.6611
633.885
0.0 0.345714 0.187769
237.3357
290.9138
417.4483
445.1754
579.3359
644.0777
0.0 0.345714 0.250359
283.5613
336.2342
393.9576
399.6473
606.6191
641.8137
0.0 0.345714 -0.312949
338.9147
338.9147
374.9728
374.9728
628.411
628.411
0.0 0.460951 0.0
303.7722
343.1797
499.777
544.1859
592.1942
639.5919
0.0 0.460951 0.06259
298.0947
330.803
487.2625
526.851
598.0968
648.1584
0.0 0.460951 0.12518
297.3498
308.2123
460.5121
491.7738
614.0157
666.2417
0.0 0.460951 0.187769
306.6087
325.7042
439.8793
456.3009
640.3532
684.702
0.0 0.460951 0.250359
337.8955
373.4781
422.3614
429.4342
670.4093
695.6835
0.0 0.460951 -0.312949
382.6579
382.6579
411.768
411.768
691.5273
691.5273
0.0 -0.576189 0.0
323.4148
398.1232
513.8401
523.8786
622.9083
664.5976
0.0 -0.576189 0.06259
314.9724
381.5508
499.1566
512.2642
623.988
668.8382
0.0 -0.576189 0.12518
309.1765
348.9467
468.4015
485.6049
633.3925
682.5716
0.0 -0.576189 0.187769
336.5267
338.4364
447.0348
459.7634
658.7442
702.8342
0.0 -0.576189 0.250359
365.6634
386.8454
437.1832
440.1612
692.7152
718.603
0.0 -0.576189 -0.312949
406.2282
406.2282
425.7236
425.7236
716.5984
716.5984
0.099799 0.172857 0.0
-36.3631
149.2063
319.6814
431.3081
460.2985
671.926
0.099799 0.172857 0.06259
-29.1872
152.5334
335.7332
424.1901
452.7214
662.7067
0.099799 0.172857 0.12518
88.2084
173.1164
371.9723
410.9052
430.413
641.279
0.099799 0.172857 0.187769
175.099
218.6814
376.0116
396.3791
441.8963
617.6317
0.099799 0.172857 0.250359
248.329
273.3397
355.2013
356.1545
501.7721
591.7479
0.099799 0.172857 -0.312949
300.8585
300.8585
328.457
328.457
554.7248
554.7248
0.099799 0.288095 0.0
152.5091
233.9877
414.9064
495.9852
529.6407
605.7581
0.099799 0.288095 0.06259
150.3727
240.8221
422.2776
494.3463
517.9349
612.7959
0.099799 0.288095 0.12518
160.1753
261.7539
427.9674
473.5876
516.7833
622.7546
0.099799 0.288095 0.187769
196.8174
294.0744
414.9971
434.1373
541.0867
624.6514
0.099799 0.288095 0.250359
250.1601
325.9269
379.0588
404.2008
570.0229
615.3754
0.099799 0.288095 -0.312949
305.4534
305.4534
378.4341
378.4341
596.0906
596.0906
0.099799 0.403332 0.0
279.7099
300.9758
471.9166
547.624
562.1944
607.4664
0.099799 0.403332 0.06259
268.7538
306.2109
470.0807
523.2086
574.1516
619.141
0.099799 0.403332 0.12518
253.1381
320.6935
455.3857
493.1314
589.8494
640.3089
0.099799 0.403332 0.187769
256.5613
346.4194
426.497
469.696
613.519
656.3311
0.099799 0.403332 0.250359
286.6404
363.0814
406.4973
448.9001
638.209
662.0694
0.099799 0.403332 -0.312949
330.1775
330.1775
426.251
426.251
655.8235
655.8235
0.099799 0.51857 0.0
335.9877
368.7334
506.9348
508.5749
600.9267
652.4731
0.099799 0.51857 0.06259
327.6107
362.9198
483.4667
514.3917
604.8452
655.6845
0.099799 0.51857 0.12518
309.1602
361.1813
449.7289
505.3676
618.7803
667.8542
0.099799 0.51857 0.187769
303.7078
381.5138
420.4508
490.9587
644.6725
685.6545
0.099799 0.51857 0.250359
325.6913
388.9311
424.9216
476.8924
674.8969
698.2464
0.099799 0.51857 -0.312949
360.3581
360.3581
456.6
456.6
695.5625
695.5625
0.199598 0.345714 0.0
239.1117
316.5905
437.6986
543.2825
559.8494
582.812
0.199598 0.345714 0.06259
233.2484
325.0515
449.2135
511.8
582.7969
587.9747
0.199598 0.345714 0.12518
225.2506
344.2312
468.5797
471.9527
586.2892
615.8907
0.199598 0.345714 0.187769
230.1062
359.0806
435.4435
472.8171
599.2336
632.731
0.199598 0.345714 0.250359
255.8854
342.9225
424.2801
459.2932
617.2746
637.3113
0.199598 0.345714 -0.312949
298.7578
298.7578
439.1601
439.1601
631.4135
631.4135
0.199598 0.460951 0.0
316.0282
373.0251
478.1045
482.3967
570.6475
629.2674
0.199598 0.460951 0.06259
307.0065
381.509
467.0349
494.9257
581.2846
628.8135
0.199598 0.460951 0.12518
290.476
393.4037
449.3437
514.1269
602.1301
633.1588
0.199598 0.460951 0.187769
279.267
379.9067
450.9491
518.8631
622.6337
646.0289
0.199598 0.460951 0.250359
283.6929
344.7823
468.4256
506.862
642.1419
655.3871
0.199598 0.460951 -0.312949
308.0506
308.0506
488.0958
488.0958
654.3204
654.3204
P	=	3799.99	V	=	86.54249	E	=	-655.01913334
0.0 0.0 0.0
-0.0
-0.0
-0.0
405.1957
405.1957
757.6228
0.0 0.0 0.062585
-60.3849
-60.3849
93.976
391.3886
391.3886
737.9566
0.0 0.0 0.125169
-69.8886
-69.8886
216.9082
360.6198
360.6198
692.9488
0.0 0.0 0.187754
108.5341
108.5341
333.4364
333.4364
357.6808
649.862
0.0 0.0 0.250338
213.2285
213.2285
313.5373
313.5373
483.513
616.3745
0.0 0.0 -0.312923
280.228
280.228
280.228
280.228
569.4365
569.4365
0.0 0.115241 0.0
-52.6198
82.6287
202.826
413.5989
428.1081
731.1426
0.0 0.115241 0.062585
-141.7787
72.6477
253.4834
402.3641
417.5049
718.1919
0.0 0.115241 0.125169
87.4941
195.288
218.8614
376.5917
402.387
675.2338
0.0 0.115241 0.187754
-167.8286
158.1127
316.3894
351.1696
454.2861
665.0219
0.0 0.115241 0.250338
-331.5649
-183.2132
236.7455
328.7818
637.8481
717.3304
0.0 0.115241 -0.312923
-348.4324
-348.4324
295.083
295.083
725.5956
725.5956
0.0 0.230482 0.0
77.6032
169.5665
380.3419
438.0544
493.6844
667.4303
0.0 0.230482 0.062585
118.0878
174.3801
385.0636
430.6704
495.2145
658.6564
0.0 0.230482 0.125169
178.8916
195.7595
412.36
419.5498
478.8766
639.9821
0.0 0.230482 0.187754
95.4946
238.1254
385.2309
390.1708
521.1736
654.6937
0.0 0.230482 0.250338
-190.4333
186.7229
289.1697
365.746
629.2296
689.3062
0.0 0.230482 -0.312923
-192.7883
-192.7883
333.5441
333.5441
688.9468
688.9468
0.0 0.345723 0.0
225.9177
250.7415
473.6542
515.1226
581.6123
601.2149
0.0 0.345723 0.062585
191.8254
253.2167
465.8926
495.2984
572.1571
643.5671
0.0 0.345723 0.125169
195.8214
267.3288
447.3761
476.8908
581.1627
660.7414
0.0 0.345723 0.187754
275.4287
300.0724
426.9276
479.8946
576.8519
644.1404
0.0 0.345723 0.250338
328.3473
342.8279
406.7896
429.6946
604.1922
634.1293
0.0 0.345723 -0.312923
364.3142
364.3142
380.4515
380.4515
630.5231
630.5231
0.0 0.460964 0.0
308.285
348.8631
507.0975
555.0
602.6598
651.7067
0.0 0.460964 0.062585
304.337
310.0935
494.9094
495.4623
643.4602
675.717
0.0 0.460964 0.125169
295.0033
306.5517
470.1984
475.8106
646.9564
691.1292
0.0 0.460964 0.187754
322.0987
335.0364
449.4271
473.0147
649.305
696.2673
0.0 0.460964 0.250338
277.1695
365.1125
380.7064
437.0386
719.4818
739.8691
0.0 0.460964 -0.312923
259.5533
259.5533
418.0389
418.0389
762.0233
762.0233
0.0 -0.576205 0.0
328.9193
403.5176
520.9964
533.8539
634.2259
677.1057
0.0 -0.576205 0.062585
321.8997
388.0394
507.1484
522.6315
635.8485
681.9884
0.0 -0.576205 0.125169
318.5372
357.4279
477.88
496.4222
646.3388
696.8331
0.0 -0.576205 0.187754
345.8314
347.115
456.5539
469.739
672.2413
717.3907
0.0 -0.576205 0.250338
372.6713
394.2351
445.069
447.9954
706.0725
732.5552
0.0 -0.576205 -0.312923
412.6309
412.6309
432.3301
432.3301
729.9596
729.9596
0.099802 0.172861 0.0
7.9339
153.3577
326.7642
438.6282
467.9717
685.7107
0.099802 0.172861 0.062585
20.14
124.646
344.2433
426.4869
471.2635
672.8035
0.099802 0.172861 0.125169
144.6338
182.281
348.1011
414.5198
465.292
641.6928
0.099802 0.172861 0.187754
-141.8129
266.2693
340.8879
415.2896
501.0213
665.8869
0.099802 0.172861 0.250338
-336.6935
-213.1743
388.8518
443.936
655.9446
724.1781
0.099802 0.172861 -0.312923
-369.0558
-369.0558
444.948
444.948
734.0365
734.0365
0.099802 0.288102 0.0
160.9085
237.6922
421.8861
505.0705
539.2602
618.91
0.099802 0.288102 0.062585
-307.1054
-184.8465
443.0448
538.7433
571.7099
658.4951
0.099802 0.288102 0.125169
-224.0161
-53.111
406.9086
504.2125
570.1945
643.5552
0.099802 0.288102 0.187754
-116.5987
234.3141
453.7516
485.3146
652.5777
726.6405
0.099802 0.288102 0.250338
-398.2751
-353.608
354.3559
370.2433
991.2968
1011.0099
0.099802 0.288102 -0.312923
-465.7043
-465.7043
299.1637
299.1637
1121.0775
1121.0775
0.099802 0.403343 0.0
286.4023
305.3744
480.1155
559.3514
573.0088
619.0842
0.099802 0.403343 0.062585
-483.5882
-391.3245
532.6778
592.5795
678.295
718.4446
0.099802 0.403343 0.125169
-405.3006
-293.3644
472.9542
542.1409
648.6805
682.7431
0.099802 0.403343 0.187754
-232.0851
86.5882
536.6017
568.3132
828.4297
869.6088
0.099802 0.403343 0.250338
-569.7854
-541.1883
482.6608
500.3283
1332.6426
1347.338
0.099802 0.403343 -0.312923
-651.8049
-651.8049
463.5545
463.5545
1518.2496
1518.2496
0.099802 0.518584 0.0
342.1845
374.9434
515.8399
518.9223
613.0756
664.876
0.099802 0.518584 0.062585
-536.3845
-411.1499
595.4096
625.5328
663.5284
741.0899
0.099802 0.518584 0.125169
-462.1191
-318.0086
507.875
579.0502
624.0948
688.9125
0.099802 0.518584 0.187754
-260.4548
105.4567
610.6082
654.6404
898.416
944.2981
0.099802 0.518584 0.250338
-581.4017
-542.459
677.361
696.7541
1469.6773
1487.3961
0.099802 0.518584 -0.312923
-648.3628
-648.3628
710.7443
710.7443
1680.9442
1680.9442
0.199603 0.345723 0.0
246.9665
321.2706
446.3225
555.5064
572.5215
593.3683
0.199603 0.345723 0.062585
-622.1754
-571.3517
534.8187
583.6618
724.4464
730.1271
0.199603 0.345723 0.125169
-550.3288
-488.6232
476.1738
534.1767
659.4292
668.529
0.199603 0.345723 0.187754
-152.935
125.0591
502.5286
523.3791
968.3285
1002.6778
0.199603 0.345723 0.250338
-408.6766
-393.4169
293.3308
297.2287
1627.1303
1638.4729
0.199603 0.345723 -0.312923
-444.6861
-444.6861
69.7824
69.7824
1863.6013
1863.6013
0.199603 0.460964 0.0
323.9361
380.5968
489.0656
493.459
585.1202
641.2573
0.199603 0.460964 0.062585
-767.7768
-726.5218
574.5746
595.4317
723.7826
761.5006
0.199603 0.460964 0.125169
-718.9811
-669.3467
518.2776
556.4463
588.0924
656.96
0.199603 0.460964 0.187754
160.5814
252.338
602.1224
647.6193
1187.1356
1212.3723
0.199603 0.460964 0.250338
-86.8005
119.6321
681.526
703.3473
2057.2044
2066.2043
0.199603 0.460964 -0.312923
162.4904
162.4904
732.8867
732.8867
2369.7706
2369.7706
P	=	3999.99	V	=	85.51046	E	=	-654.99177357
0.0 0.0 0.0
-0.0
-0.0
0.0
415.9398
415.9398
771.0036
0.0 0.0 0.06258
-57.3417
-57.3417
97.4941
401.4323
401.4323
751.4271
0.0 0.0 0.12516
-60.5655
-60.5655
222.7897
368.7563
368.7563
706.4807
0.0 0.0 0.18774
117.6684
117.6684
339.2671
339.2671
365.1788
662.9421
0.0 0.0 0.250319
218.9791
218.9791
317.9595
317.9595
492.4326
628.2883
0.0 0.0 -0.312899
284.7073
284.7073
284.7073
284.7073
579.8396
579.8396
0.0 0.115243 0.0
-48.322
84.4497
207.076
422.8094
437.4358
744.5424
0.0 0.115243 0.06258
-41.8129
78.0135
229.8074
411.3694
427.8041
728.6405
0.0 0.115243 0.12516
88.3515
97.4238
294.6311
384.7725
403.498
691.6557
0.0 0.115243 0.18774
165.8387
176.1494
357.7396
373.8181
393.0863
653.6896
0.0 0.115243 0.250319
242.0476
249.5461
333.6581
343.0758
495.1716
619.4898
0.0 0.115243 -0.312899
299.3572
299.3572
304.6512
304.6512
572.2445
572.2445
0.0 0.230487 0.0
87.143
171.9276
387.5209
444.8684
501.6761
680.5432
0.0 0.230487 0.06258
96.4404
179.0446
406.3451
438.1399
496.0584
675.2117
0.0 0.230487 0.12516
142.8056
203.6357
420.7739
446.5246
476.9064
662.4819
0.0 0.230487 0.18774
210.8558
245.5847
398.0213
434.5819
497.3751
645.5929
0.0 0.230487 0.250319
274.5979
294.2578
371.4805
384.7833
544.0976
621.8743
0.0 0.230487 -0.312899
330.7142
330.7142
337.7584
337.7584
587.6703
587.6703
0.0 0.34573 0.0
232.3318
253.6332
479.7296
523.747
591.0976
613.149
0.0 0.34573 0.06258
229.9481
258.0941
472.9408
533.1165
566.8678
636.9907
0.0 0.34573 0.12516
233.9852
275.2776
456.0364
513.4016
575.2622
660.6944
0.0 0.34573 0.18774
257.7648
307.9951
435.4745
466.5414
604.8814
671.132
0.0 0.34573 0.250319
300.2093
348.543
411.619
413.246
630.8532
667.0487
0.0 0.34573 -0.312899
353.9173
353.9173
385.2947
385.2947
652.0979
652.0979
0.0 0.460973 0.0
312.5532
354.5507
513.4462
565.224
612.6643
663.0983
0.0 0.460973 0.06258
310.0668
344.0504
502.6388
548.1995
620.0746
673.2272
0.0 0.460973 0.12516
314.7229
324.9995
478.8129
513.4763
638.8149
693.6853
0.0 0.460973 0.18774
323.7849
343.2736
458.0628
476.2499
666.4923
712.7112
0.0 0.460973 0.250319
352.0988
387.1877
438.3768
444.0277
696.1649
722.4554
0.0 0.460973 -0.312899
395.8378
395.8378
423.7924
423.7924
717.1429
717.1429
0.0 -0.576216 0.0
334.0263
408.8957
527.5031
543.3316
644.9617
689.1816
0.0 -0.576216 0.06258
328.1928
394.1843
514.3712
532.3441
646.9428
694.5375
0.0 -0.576216 0.12516
326.8461
364.868
486.3839
506.2785
658.2495
710.2706
0.0 -0.576216 0.18774
354.1404
354.4805
465.1414
478.6891
684.7941
731.2197
0.0 -0.576216 0.250319
378.7574
401.02
452.1835
455.2088
718.8828
746.094
0.0 -0.576216 -0.312899
418.4059
418.4059
438.5044
438.5044
743.0328
743.0328
0.099804 0.172865 0.0
35.962
156.0959
332.9481
446.3745
475.8719
698.9761
0.099804 0.172865 0.06258
52.1199
164.2167
351.8016
440.6778
469.7523
690.1017
0.099804 0.172865 0.12516
117.2277
191.0411
390.9725
430.4377
449.6757
669.0213
0.099804 0.172865 0.18774
195.773
234.9348
392.5475
415.0723
463.7059
644.392
0.099804 0.172865 0.250319
262.8471
284.3281
367.7002
371.2933
522.9441
616.0215
0.099804 0.172865 -0.312899
311.8019
311.8019
339.2551
339.2551
576.6115
576.6115
0.099804 0.288108 0.0
168.5915
240.9989
428.3585
513.1814
547.718
631.4241
0.099804 0.288108 0.06258
169.067
252.1239
438.117
513.5784
538.2632
638.7453
0.099804 0.288108 0.12516
183.3843
279.2488
446.9873
495.3814
540.9702
649.6988
0.099804 0.288108 0.18774
218.8196
311.3923
433.8952
455.0062
566.0252
651.3281
0.099804 0.288108 0.250319
266.8433
338.7945
395.7774
419.3938
593.3318
639.9601
0.099804 0.288108 -0.312899
318.9508
318.9508
390.6451
390.6451
618.8912
618.8912
0.099804 0.403351 0.0
292.9909
309.6941
487.2598
570.3307
582.2928
629.7054
0.099804 0.403351 0.06258
283.296
318.9074
487.232
545.4771
596.2033
643.6232
0.099804 0.403351 0.12516
271.5085
338.737
475.3744
515.5907
614.9592
667.3569
0.099804 0.403351 0.18774
275.4232
364.8584
446.0557
490.4476
639.7287
683.6698
0.099804 0.403351 0.250319
301.9147
378.0472
422.5506
465.5338
663.3399
687.8082
0.099804 0.403351 -0.312899
343.469
343.469
440.1221
440.1221
680.333
680.333
0.099804 0.518595 0.0
347.8666
381.0612
523.4277
528.5799
623.8686
676.6789
0.099804 0.518595 0.06258
341.4564
377.5046
502.1134
534.1505
628.5089
681.1814
0.099804 0.518595 0.12516
326.234
379.6759
469.5405
526.6235
643.9692
695.4837
0.099804 0.518595 0.18774
320.7515
400.1909
438.9995
511.4214
670.6009
713.8576
0.099804 0.518595 0.250319
339.4683
403.743
440.839
494.0963
700.591
725.3371
0.099804 0.518595 -0.312899
372.7063
372.7063
471.4155
471.4155
721.4355
721.4355
0.199607 0.34573 0.0
254.5851
326.1916
453.9044
566.8547
581.8689
603.3824
0.199607 0.34573 0.06258
250.1455
338.0259
467.7237
534.4585
605.2482
612.5313
0.199607 0.34573 0.12516
245.4305
362.4707
489.9669
494.8454
612.1152
642.3953
0.199607 0.34573 0.18774
250.6264
377.9138
456.8138
493.5095
625.9941
659.1577
0.199607 0.34573 0.250319
272.5486
358.7101
441.7632
476.4899
642.2697
662.0094
0.199607 0.34573 -0.312899
312.896
312.896
454.2687
454.2687
655.1274
655.1274
0.199607 0.460973 0.0
331.5736
387.4604
498.3765
503.4885
595.9837
652.5319
0.199607 0.460973 0.06258
323.61
398.1242
488.4855
516.9292
606.7647
653.5088
0.199607 0.460973 0.12516
309.3761
413.1542
471.6504
537.4126
628.1227
660.2892
0.199607 0.460973 0.18774
298.2591
399.5381
471.958
541.0866
648.8361
673.3018
0.199607 0.460973 0.250319
299.8384
361.2599
486.8472
526.099
667.338
681.1042
0.199607 0.460973 -0.312899
322.5045
322.5045
505.3666
505.3666
678.961
678.961
P	=	5999.83	V	=	77.3143	E	=	-654.71691654
0.0 0.0 0.0
-0.0
-0.0
0.0
474.1794
474.1794
885.1994
0.0 0.0 0.06252
-13.4631
-13.4631
123.9281
460.1466
460.1466
866.2996
0.0 0.0 0.12504
76.7375
76.7375
266.9487
426.4598
426.4598
821.02
0.0 0.0 0.18756
167.8413
167.8413
390.0986
390.0986
420.8131
771.2537
0.0 0.0 0.25008
253.5748
253.5748
357.5702
357.5702
558.748
723.3412
0.0 0.0 -0.312599
316.9148
316.9148
316.9148
316.9148
659.3915
659.3915
0.0 0.11533 0.0
62.8259
108.439
253.6487
482.8866
504.6802
860.5962
0.0 0.11533 0.06252
84.1838
121.0284
282.821
472.9275
495.3826
845.1819
0.0 0.11533 0.12504
152.4018
160.5071
357.7731
447.2893
470.2078
807.7304
0.0 0.11533 0.18756
219.8312
229.9795
414.537
435.3057
463.0943
764.5273
0.0 0.11533 0.25008
282.7273
296.8443
378.8749
395.9
572.3776
719.5625
0.0 0.11533 -0.312599
336.6087
336.6087
351.1726
351.1726
659.7913
659.7913
0.0 0.230661 0.0
165.5915
210.2305
467.4593
506.8219
586.9376
797.5841
0.0 0.230661 0.06252
175.7282
228.3884
488.4403
503.6372
581.2333
792.608
0.0 0.230661 0.12504
217.0359
267.6788
491.2539
531.9879
562.3909
779.6858
0.0 0.230661 0.18756
279.7766
307.8904
465.3363
513.8403
590.2075
760.0489
0.0 0.230661 0.25008
341.7127
345.069
427.112
458.5933
641.1017
730.8376
0.0 0.230661 -0.312599
384.5337
384.5337
399.5934
399.5934
690.1393
690.1393
0.0 0.345991 0.0
291.7768
296.3389
538.2133
618.1199
690.8359
721.4567
0.0 0.345991 0.06252
292.3364
309.9341
536.7582
626.7155
667.8026
747.3056
0.0 0.345991 0.12504
301.6026
340.6787
528.7666
604.1715
678.7943
774.9112
0.0 0.345991 0.18756
327.6912
373.43
508.3439
552.5808
710.7045
786.5305
0.0 0.345991 0.25008
370.5265
404.5612
475.6866
490.7796
738.6732
780.5057
0.0 0.345991 -0.312599
426.962
426.962
438.5394
438.5394
762.4202
762.4202
0.0 0.461322 0.0
355.2435
404.0765
564.6449
655.4686
710.0285
768.5412
0.0 0.461322 0.06252
360.1822
397.2253
560.1051
636.5447
719.8663
782.7264
0.0 0.461322 0.12504
376.8291
384.7278
547.9716
598.4323
742.7045
809.5417
0.0 0.461322 0.18756
384.8923
406.2723
530.7031
554.4444
773.1205
830.6943
0.0 0.461322 0.25008
410.0216
443.3217
506.1159
508.4413
804.3477
837.6764
0.0 0.461322 -0.312599
455.0155
455.0155
479.248
479.248
828.0734
828.0734
0.0 -0.576652 0.0
376.3549
456.0147
574.9084
623.034
742.3508
795.3922
0.0 -0.576652 0.06252
377.0833
445.4486
568.269
611.8099
745.9792
804.9498
0.0 -0.576652 0.12504
386.709
423.0373
552.9473
584.3107
760.8175
827.4781
0.0 -0.576652 0.18756
412.4568
415.1264
536.686
550.2064
789.941
850.3546
0.0 -0.576652 0.25008
430.4963
456.4094
512.083
519.6904
825.6379
861.5209
0.0 -0.576652 -0.312599
469.4647
469.4647
494.2472
494.2472
853.1136
853.1136
0.099879 0.172996 0.0
132.3833
197.4611
399.9151
515.4502
553.0375
816.5109
0.099879 0.172996 0.06252
143.423
214.8913
422.3236
512.2158
547.7289
807.9347
0.099879 0.172996 0.12504
191.7886
253.785
463.6046
509.1364
528.0897
786.4531
0.099879 0.172996 0.18756
260.93
295.7239
457.5838
490.2838
551.0738
758.3268
0.099879 0.172996 0.25008
323.0198
335.0087
423.4202
439.816
614.7905
722.9069
0.099879 0.172996 -0.312599
363.9307
363.9307
396.652
396.652
675.1795
675.1795
0.099879 0.288326 0.0
239.2804
293.4622
499.0259
598.6713
639.6672
745.2835
0.099879 0.288326 0.06252
240.6252
310.9204
509.9605
601.9445
633.0126
753.0722
0.099879 0.288326 0.12504
256.5444
346.9722
521.1083
584.6883
641.8762
765.4736
0.099879 0.288326 0.18756
291.1146
379.4698
508.6223
539.5591
669.3109
766.8788
0.099879 0.288326 0.25008
336.25
401.2572
471.0547
490.8525
697.7744
752.1286
0.099879 0.288326 -0.312599
385.685
385.685
457.0939
457.0939
726.3957
726.3957
0.099879 0.403657 0.0
351.9816
364.6897
553.7907
670.5365
674.8273
733.2498
0.099879 0.403657 0.06252
343.1008
379.9924
556.0397
639.0665
697.0485
751.8438
0.099879 0.403657 0.12504
335.2417
407.6217
551.424
603.7832
721.8946
781.9023
0.099879 0.403657 0.18756
340.0326
435.2595
525.0776
572.1849
748.4969
800.2578
0.099879 0.403657 0.25008
364.2887
445.4764
494.745
540.8944
771.9057
801.7932
0.099879 0.403657 -0.312599
406.6501
406.6501
509.988
509.988
790.4821
790.4821
0.099879 0.518987 0.0
402.993
435.3273
582.8449
613.1382
721.0173
783.3084
0.099879 0.518987 0.06252
399.273
436.0476
569.6205
614.0622
728.1812
791.8578
0.099879 0.518987 0.12504
386.9785
446.8334
542.2903
607.7965
748.0078
812.5339
0.099879 0.518987 0.18756
379.6529
469.7734
510.6674
591.9181
776.8469
832.4566
0.099879 0.518987 0.25008
393.2945
465.7973
508.9056
568.8937
807.695
840.2189
0.099879 0.518987 -0.312599
426.7209
426.7209
540.1978
540.1978
831.2709
831.2709
0.199758 0.345991 0.0
323.1015
394.419
532.0943
670.7864
672.217
704.4032
0.199758 0.345991 0.06252
317.9863
408.071
546.6041
627.354
709.7163
717.5986
0.199758 0.345991 0.12504
313.2715
435.881
568.9098
585.5478
722.5802
755.5487
0.199758 0.345991 0.18756
318.9661
452.9993
544.0405
572.5251
737.1339
774.8044
0.199758 0.345991 0.25008
340.6198
432.4323
523.4457
555.7733
750.3189
774.4915
0.199758 0.345991 -0.312599
382.4619
382.4619
533.748
533.748
763.3474
763.3474
0.199758 0.461322 0.0
399.9161
462.9388
581.9834
596.562
688.4675
758.6986
0.199758 0.461322 0.06252
390.4812
474.5918
572.8073
605.4892
706.519
762.8357
0.199758 0.461322 0.12504
374.2202
490.4451
555.0537
624.3116
736.702
775.1096
0.199758 0.461322 0.18756
362.0139
475.2666
556.1706
628.1
759.0906
789.1275
0.199758 0.461322 0.25008
363.6655
432.6212
571.6042
613.3389
775.1311
793.2319
0.199758 0.461322 -0.312599
388.8642
388.8642
591.3988
591.3988
786.9865
786.9865
P	=	7999.97	V	=	71.56355	E	=	-654.44514706
0.0 0.0 0.0
-0.0
0.0
0.0
485.5615
485.5615
978.0495
0.0 0.0 0.062468
-7.9329
-7.9329
159.4449
476.3394
476.3394
961.6109
0.0 0.0 0.124936
80.1846
80.1846
318.9021
453.4074
453.4074
918.3165
0.0 0.0 0.187404
174.136
174.136
424.8251
424.8251
471.414
860.2678
0.0 0.0 0.249872
266.8424
266.8424
390.4722
390.4722
605.0053
793.3143
0.0 0.0 -0.31234
340.4853
340.4853
340.4853
340.4853
711.5217
711.5217
0.0 0.115386 0.0
111.8158
133.4455
292.7021
508.7791
538.5542
955.0302
0.0 0.115386 0.062468
136.2509
139.0724
320.6397
499.8716
529.4492
940.1239
0.0 0.115386 0.124936
169.9865
185.0504
404.0559
477.4063
505.7762
901.6434
0.0 0.115386 0.187404
232.7869
249.6391
448.8968
473.9089
518.6237
851.7516
0.0 0.115386 0.249872
306.3076
321.7624
415.297
435.636
631.8671
795.2685
0.0 0.115386 -0.31234
369.4987
369.4987
385.9948
385.9948
724.9601
724.9601
0.0 0.230772 0.0
229.7589
252.6341
536.3844
558.089
657.0427
892.8681
0.0 0.230772 0.062468
232.3861
260.0964
549.869
550.8801
645.168
884.633
0.0 0.230772 0.124936
256.8859
285.8218
528.7343
586.6766
617.4528
865.2121
0.0 0.230772 0.187404
314.8534
330.4509
501.3853
561.7987
656.5598
842.7808
0.0 0.230772 0.249872
383.5052
387.0387
470.2959
511.224
721.5247
816.4818
0.0 0.230772 -0.31234
431.9273
431.9273
454.0147
454.0147
777.5588
777.5588
0.0 0.346159 0.0
343.1803
347.0338
602.1162
701.6404
778.8341
809.781
0.0 0.346159 0.062468
342.0045
348.0505
594.2686
702.8261
749.262
831.6896
0.0 0.346159 0.124936
341.6646
366.7287
574.5836
667.8365
750.7461
852.88
0.0 0.346159 0.187404
370.4146
402.6598
550.2548
609.7891
786.7564
866.1624
0.0 0.346159 0.249872
427.4383
448.1699
523.6112
552.2241
827.3135
869.5366
0.0 0.346159 -0.31234
490.52
490.52
492.1406
492.1406
857.3114
857.3114
0.0 0.461545 0.0
397.292
445.7885
627.5294
729.782
793.3944
860.0593
0.0 0.461545 0.062468
398.0095
439.3601
619.5412
709.5425
799.1781
869.5008
0.0 0.461545 0.124936
408.2935
427.8011
600.6386
665.0399
817.5442
891.0658
0.0 0.461545 0.187404
431.6766
439.1484
579.6439
615.3676
851.3555
913.7779
0.0 0.461545 0.249872
463.9166
484.5802
557.6796
565.8913
891.1978
926.7032
0.0 0.461545 -0.31234
513.9766
513.9766
527.2861
527.2861
919.8805
919.8805
0.0 -0.576931 0.0
414.8748
491.8606
635.2408
689.7473
823.2178
886.6051
0.0 -0.576931 0.062468
413.6093
484.7055
627.0945
679.2016
824.1385
892.9576
0.0 -0.576931 0.124936
420.0652
468.2097
608.3625
650.175
836.144
911.7155
0.0 -0.576931 0.187404
449.1895
461.1632
588.7686
611.4647
868.4238
935.3832
0.0 -0.576931 0.249872
481.1708
495.603
568.6264
568.83
910.7105
949.7766
0.0 -0.576931 -0.31234
522.4779
522.4779
539.2918
539.2918
942.2738
942.2738
0.099927 0.173079 0.0
197.1411
238.7933
455.9403
568.2289
612.3535
912.2665
0.099927 0.173079 0.062468
201.4834
245.6138
472.3121
561.6616
602.3376
901.3395
0.099927 0.173079 0.124936
230.7687
270.8817
503.2079
559.5093
574.6752
874.6073
0.099927 0.173079 0.187404
291.4245
316.7952
493.6253
535.0236
614.2841
842.5265
0.099927 0.173079 0.249872
361.6129
371.2381
466.4061
488.7116
690.5835
806.4063
0.099927 0.173079 -0.31234
408.9907
408.9907
445.9367
445.9367
757.5956
757.5956
0.099927 0.288466 0.0
304.2367
345.2158
565.1328
677.6465
722.0989
838.5406
0.099927 0.288466 0.062468
296.5111
351.9121
566.954
674.2211
709.4022
841.3346
0.099927 0.288466 0.124936
295.3281
373.2614
564.1394
643.5052
710.6867
845.6877
0.099927 0.288466 0.187404
328.7675
409.613
549.8913
592.3936
743.1399
847.2549
0.099927 0.288466 0.249872
388.0455
448.4659
525.2007
547.5405
785.3209
841.1177
0.099927 0.288466 -0.31234
444.0594
444.0594
518.6325
518.6325
820.8738
820.8738
0.099927 0.403852 0.0
406.9298
417.6556
622.7695
754.0128
759.3506
824.6789
0.099927 0.403852 0.062468
392.4283
426.1583
617.8196
716.523
778.5333
837.3677
0.099927 0.403852 0.124936
375.0837
443.1314
602.2182
668.39
797.6341
860.7704
0.099927 0.403852 0.187404
380.5641
473.3657
574.8314
629.1789
827.2241
881.2193
0.099927 0.403852 0.249872
416.6857
497.3572
551.5406
601.4832
860.9236
891.5036
0.099927 0.403852 -0.31234
465.7653
465.7653
573.2812
573.2812
885.1289
885.1289
0.099927 0.519238 0.0
453.2124
482.2187
648.2736
685.8808
803.477
875.5225
0.099927 0.519238 0.062468
444.1337
483.3752
632.0328
684.4458
807.103
880.2573
0.099927 0.519238 0.124936
426.7894
490.8413
598.4733
672.4841
822.9274
895.8223
0.099927 0.519238 0.187404
420.697
514.6232
562.9686
653.0395
855.0072
916.6428
0.099927 0.519238 0.249872
440.3413
517.4944
562.5862
630.39
893.9549
929.3661
0.099927 0.519238 -0.31234
478.4395
478.4395
600.4941
600.4941
922.463
922.463
0.199855 0.346159 0.0
388.9587
455.2855
607.4584
754.3204
761.0304
795.6785
0.199855 0.346159 0.062468
375.7779
458.5819
612.0509
704.7001
795.5851
800.5438
0.199855 0.346159 0.124936
354.9355
471.3448
619.4019
647.9914
800.6221
832.5123
0.199855 0.346159 0.187404
358.9113
490.9434
600.3858
621.9972
817.3883
854.4312
0.199855 0.346159 0.249872
395.8183
486.9514
586.8728
617.469
841.0296
864.4104
0.199855 0.346159 -0.31234
446.2278
446.2278
603.6417
603.6417
859.5381
859.5381
0.199855 0.461545 0.0
466.3136
529.0679
658.8973
679.4972
771.3558
852.1064
0.199855 0.461545 0.062468
450.3974
532.3019
644.1265
679.3449
786.2288
851.3801
0.199855 0.461545 0.124936
420.1694
536.008
614.013
685.5429
812.5912
856.072
0.199855 0.461545 0.187404
403.9949
521.9221
610.639
688.6956
838.3724
870.9407
0.199855 0.461545 0.249872
416.5689
488.1363
637.3793
683.1521
863.8575
883.1094
0.199855 0.461545 -0.31234
449.7436
449.7436
665.8466
665.8466
881.2435
881.2435
P	=	8999.88	V	=	69.23425	E	=	-654.31071227
0.0 0.0 0.0
-0.0
0.0
0.0
507.784
507.784
1021.0775
0.0 0.0 0.062431
58.6968
58.6968
177.5837
500.1822
500.1822
1006.0177
0.0 0.0 0.124861
127.8047
127.8047
347.2419
479.1539
479.1539
964.414
0.0 0.0 0.187292
206.285
206.285
447.7902
447.7902
501.0852
903.9716
0.0 0.0 0.249722
284.4525
284.4525
406.5038
406.5038
633.0143
830.015
0.0 0.0 -0.312153
352.5709
352.5709
352.5709
352.5709
741.4474
741.4474
0.0 0.115424 0.0
129.3891
145.913
310.9452
531.882
565.0731
998.8865
0.0 0.115424 0.062431
156.0314
159.8002
341.1326
522.8362
556.0873
984.3747
0.0 0.115424 0.124861
192.5655
212.7433
429.7746
499.4122
531.9382
946.0337
0.0 0.115424 0.187292
254.3502
273.946
468.4916
497.6309
548.0859
894.1895
0.0 0.115424 0.249722
324.047
341.1783
432.0124
455.6764
663.2336
833.5662
0.0 0.115424 -0.312153
385.1595
385.1595
403.7804
403.7804
759.003
759.003
0.0 0.230848 0.0
255.1592
272.3209
567.8255
583.9108
691.0061
937.6455
0.0 0.230848 0.062431
255.5143
276.227
572.9714
580.9342
677.4961
928.0807
0.0 0.230848 0.124861
276.2163
297.2702
546.6806
614.9358
647.0274
906.2915
0.0 0.230848 0.187292
334.7096
343.9517
517.4627
587.8752
688.8766
883.1671
0.0 0.230848 0.249722
402.7745
410.723
489.2202
537.3781
759.0388
857.8291
0.0 0.230848 -0.312153
453.5198
453.5198
480.214
480.214
818.6296
818.6296
0.0 0.346272 0.0
364.0396
370.5514
631.5633
738.1288
818.1634
852.4988
0.0 0.346272 0.062431
363.8633
366.2983
620.9309
738.1975
787.2034
873.509
0.0 0.346272 0.124861
361.6651
381.5761
595.97
699.7093
787.25
893.7274
0.0 0.346272 0.187292
392.8955
419.5482
569.676
638.8686
824.6753
907.4468
0.0 0.346272 0.249722
454.6806
470.4374
545.7274
581.3296
868.355
912.3781
0.0 0.346272 -0.312153
515.0998
515.0998
521.7297
521.7297
900.4958
900.4958
0.0 0.461696 0.0
416.3092
464.967
659.7861
767.0042
829.434
901.5052
0.0 0.461696 0.062431
418.661
460.4689
651.0345
745.3498
837.3355
912.9763
0.0 0.461696 0.124861
432.2187
453.2659
630.0493
699.1725
858.7925
936.9548
0.0 0.461696 0.187292
460.0247
464.9069
606.4283
647.2862
893.5179
959.2798
0.0 0.461696 0.249722
491.8423
509.9676
582.5515
594.8587
932.4415
969.7503
0.0 0.461696 -0.312153
541.274
541.274
551.8218
551.8218
960.9915
960.9915
0.0 -0.57712 0.0
432.7639
509.4859
668.4842
723.4756
858.425
928.2709
0.0 -0.57712 0.062431
435.3695
505.87
660.7994
713.37
862.3703
937.5964
0.0 -0.57712 0.124861
448.7042
496.4002
641.9086
685.2121
879.2691
960.3298
0.0 -0.57712 0.187292
479.5787
492.2008
619.3079
644.8252
912.1568
983.1042
0.0 -0.57712 0.249722
508.8132
522.3468
594.7808
597.0693
951.4474
992.7515
0.0 -0.57712 -0.312153
547.7514
547.7514
563.3204
563.3204
981.8686
981.8686
0.09996 0.173136 0.0
222.0183
257.9295
482.6048
595.535
643.8689
957.0644
0.09996 0.173136 0.062431
225.0808
262.5305
497.0011
587.6451
632.2813
945.1262
0.09996 0.173136 0.124861
250.9891
285.0298
522.9167
586.1639
601.3485
916.3929
0.09996 0.173136 0.187292
310.5235
332.5741
511.1185
559.4693
645.1139
883.1695
0.09996 0.173136 0.249722
382.6201
390.7281
486.1349
512.9333
726.5279
846.9407
0.09996 0.173136 -0.312153
429.8164
429.8164
469.8383
469.8383
797.1077
797.1077
0.09996 0.28856 0.0
330.9694
368.3232
595.0723
712.9981
759.1379
883.1449
0.09996 0.28856 0.062431
319.7962
371.4913
593.3639
707.5057
744.583
883.7557
0.09996 0.28856 0.124861
312.6638
388.0867
584.3868
672.4017
743.3723
884.8727
0.09996 0.28856 0.187292
346.9253
426.4428
568.8369
618.7242
777.8463
886.5501
0.09996 0.28856 0.249722
412.2119
471.4124
549.6301
574.6305
825.3708
883.3531
0.09996 0.28856 -0.312153
470.5107
470.5107
546.9708
546.9708
864.3064
864.3064
0.09996 0.403984 0.0
431.1647
441.3678
655.7662
795.3859
796.5075
865.5265
0.09996 0.403984 0.062431
415.5636
448.5248
648.4992
753.1925
816.6818
878.7075
0.09996 0.403984 0.124861
396.5498
464.4308
628.2797
700.3036
835.1774
901.8196
0.09996 0.403984 0.187292
403.4842
496.7228
599.1944
657.8603
866.0781
922.499
0.09996 0.403984 0.249722
443.0221
523.3602
578.9563
630.1281
902.1941
933.9315
0.09996 0.403984 -0.312153
493.2264
493.2264
602.8409
602.8409
927.922
927.922
0.09996 0.519408 0.0
476.5355
504.7155
682.8962
722.7557
840.2026
917.2388
0.09996 0.519408 0.062431
468.653
507.0189
665.9037
719.811
845.2692
923.4775
0.09996 0.519408 0.124861
453.44
517.6039
629.9147
705.6013
863.3815
940.9113
0.09996 0.519408 0.187292
448.4365
543.6874
591.6017
684.1276
896.167
961.1914
0.09996 0.519408 0.249722
467.1143
543.8955
591.9587
659.9638
934.5206
971.7309
0.09996 0.519408 -0.312153
504.0533
504.0533
629.6781
629.6781
963.1086
963.1086
0.19992 0.346272 0.0
417.3381
482.5354
642.1796
791.9327
804.877
835.9024
0.19992 0.346272 0.062431
400.9427
483.259
643.4417
740.8266
833.865
840.3018
0.19992 0.346272 0.124861
374.4099
492.2536
645.3383
677.079
836.0698
869.2836
0.19992 0.346272 0.187292
379.0691
512.4891
626.6512
646.967
853.9942
891.9326
0.19992 0.346272 0.249722
422.3824
512.559
616.6812
646.1853
882.2462
905.9754
0.19992 0.346272 -0.312153
475.4017
475.4017
635.3076
635.3076
903.3849
903.3849
0.19992 0.461696 0.0
496.994
559.8457
696.4473
721.5244
809.953
893.923
0.19992 0.461696 0.062431
478.4308
561.044
679.6875
715.8288
823.9221
891.821
0.19992 0.461696 0.124861
443.234
561.7167
642.6947
716.4713
848.0392
894.2918
0.19992 0.461696 0.187292
426.7871
545.825
638.6132
718.2393
874.8904
909.1534
0.19992 0.461696 0.249722
444.0981
514.4459
669.4931
715.2433
904.1774
923.9756
0.19992 0.461696 -0.312153
479.2588
479.2588
699.9438
699.9438
923.6972
923.6972
P	=	9999.99	V	=	67.18228	E	=	-654.17830468
0.0 0.0 0.0
-0.0
-0.0
0.0
523.7291
523.7291
1060.3848
0.0 0.0 0.062388
74.366
74.366
190.8071
517.4097
517.4097
1046.3123
0.0 0.0 0.124775
149.5446
149.5446
368.8645
498.3156
498.3156
1005.8894
0.0 0.0 0.187163
224.8226
224.8226
466.1989
466.1989
525.4899
943.5938
0.0 0.0 0.24955
297.5869
297.5869
421.1493
421.1493
658.186
864.1489
0.0 0.0 -0.311938
364.1744
364.1744
364.1744
364.1744
769.6486
769.6486
0.0 0.115455 0.0
140.5912
152.8523
325.9375
548.6208
584.9302
1038.0537
0.0 0.115455 0.062388
164.5478
175.2039
357.0697
539.3836
575.5872
1024.011
0.0 0.115455 0.124775
203.6307
229.4461
450.3634
515.3322
550.7055
986.0167
0.0 0.115455 0.187163
266.5818
289.5617
483.3504
515.8377
572.9324
932.5166
0.0 0.115455 0.24955
336.5324
357.0359
445.6819
473.4194
690.627
868.0426
0.0 0.115455 -0.311938
397.9816
397.9816
420.6928
420.6928
789.3304
789.3304
0.0 0.23091 0.0
272.752
283.8542
595.049
602.988
717.6856
976.0895
0.0 0.23091 0.062388
273.4589
284.9394
589.7664
605.8887
702.1085
966.0364
0.0 0.23091 0.124775
293.0758
302.4425
559.1414
637.1443
669.2229
942.999
0.0 0.23091 0.187163
351.3831
351.5958
528.4321
608.5005
715.7776
918.7797
0.0 0.23091 0.24955
415.9809
431.1495
502.6937
560.5428
791.0814
893.2403
0.0 0.23091 -0.311938
469.1061
469.1061
504.038
504.038
853.5421
853.5421
0.0 0.346365 0.0
378.184
389.3366
653.2903
771.7549
850.6973
889.0067
0.0 0.346365 0.062388
378.6335
382.866
640.6737
769.2675
819.2325
909.086
0.0 0.346365 0.124775
380.8332
391.6763
611.9769
726.6996
818.0385
928.5784
0.0 0.346365 0.187163
413.1189
431.5792
584.4227
664.371
856.8672
942.9201
0.0 0.346365 0.24955
477.7911
486.8782
562.5596
607.2627
904.2273
949.6881
0.0 0.346365 -0.311938
533.5904
533.5904
547.3472
547.3472
938.5405
938.5405
0.0 0.46182 0.0
432.2101
483.0153
682.995
800.5539
864.1188
938.1618
0.0 0.46182 0.062388
435.6978
480.1822
674.4912
777.8483
872.675
950.7986
0.0 0.46182 0.124775
451.4002
476.0788
653.7766
729.9485
895.1357
976.5325
0.0 0.46182 0.187163
484.2122
485.1859
629.6131
675.782
930.6439
999.4198
0.0 0.46182 0.24955
515.4934
530.2546
604.3639
620.5654
970.1003
1009.208
0.0 0.46182 -0.311938
565.0109
565.0109
572.4216
572.4216
999.3942
999.3942
0.0 -0.577275 0.0
449.4264
527.1513
692.0254
755.4616
892.9436
966.2367
0.0 -0.577275 0.062388
454.6417
525.9578
685.8878
745.2762
898.4918
977.5128
0.0 -0.577275 0.124775
472.3111
520.9869
669.5369
716.7189
918.083
1003.0417
0.0 -0.577275 0.187163
503.9116
518.2348
646.7673
674.0783
951.6038
1025.7842
0.0 -0.577275 0.24955
532.4731
544.3774
618.9436
622.1491
989.7061
1032.9094
0.0 -0.577275 -0.311938
570.1165
570.1165
584.6889
584.6889
1019.9185
1019.9185
0.099987 0.173182 0.0
238.6495
269.7827
504.3756
615.9589
668.726
995.8379
0.099987 0.173182 0.062388
242.4655
271.8563
516.457
606.7886
655.1899
983.6168
0.099987 0.173182 0.124775
266.9376
291.2486
537.3422
606.571
620.9311
953.9834
0.099987 0.173182 0.187163
325.2809
341.0311
523.4166
578.5824
670.8857
919.4401
0.099987 0.173182 0.24955
400.0074
403.9849
501.2561
534.3896
757.1823
881.986
0.099987 0.173182 -0.311938
445.7249
445.7249
491.3704
491.3704
830.7016
830.7016
0.099987 0.288637 0.0
350.512
383.8454
618.1107
742.981
789.1903
920.7913
0.099987 0.288637 0.062388
338.426
384.0569
612.8819
735.3863
772.9022
920.3666
0.099987 0.288637 0.124775
328.5684
396.6511
598.3802
696.0404
770.267
919.5113
0.099987 0.288637 0.187163
362.2782
437.283
582.386
641.1379
807.2706
920.8684
0.099987 0.288637 0.24955
431.0875
488.2877
569.0731
598.0366
859.7605
919.4353
0.099987 0.288637 -0.311938
491.066
491.066
570.6127
570.6127
901.3263
901.3263
0.099987 0.404092 0.0
451.1457
459.0447
680.1814
830.1029
830.8265
900.3184
0.099987 0.404092 0.062388
434.5146
465.8731
671.1304
785.2614
850.666
913.8185
0.099987 0.404092 0.124775
414.6349
480.719
648.3326
728.3495
868.1132
937.2133
0.099987 0.404092 0.187163
421.8963
514.6873
619.7315
682.5672
899.9943
958.8317
0.099987 0.404092 0.24955
463.5304
544.6879
601.6622
654.2467
938.631
971.7148
0.099987 0.404092 -0.311938
515.4303
515.4303
627.1624
627.1624
966.062
966.062
0.099987 0.519547 0.0
495.6282
524.8373
707.8654
755.8627
874.3947
954.2525
0.099987 0.519547 0.062388
488.1943
528.18
691.6274
751.235
880.1387
961.5641
0.099987 0.519547 0.124775
474.2599
540.4471
655.8038
734.8831
899.4592
980.602
0.099987 0.519547 0.187163
470.1109
567.3942
616.5228
711.5939
932.9763
1001.1233
0.099987 0.519547 0.24955
488.6379
567.0117
615.9662
685.7171
971.6342
1010.6521
0.099987 0.519547 -0.311938
525.7805
525.7805
654.194
654.194
1000.8428
1000.8428
0.199974 0.346365 0.0
438.9817
502.5217
668.3944
823.7261
841.4205
869.5253
0.199974 0.346365 0.062388
421.1532
500.5426
666.4434
771.4612
866.1511
874.7007
0.199974 0.346365 0.124775
391.0329
505.7566
663.4618
703.097
866.7121
902.2944
0.199974 0.346365 0.187163
394.8291
527.8047
650.289
665.1083
886.0962
925.6046
0.199974 0.346365 0.24955
442.0257
533.471
641.3158
668.8532
917.9819
942.2322
0.199974 0.346365 -0.311938
498.0977
498.0977
661.142
661.142
941.0585
941.0585
0.199974 0.46182 0.0
521.1319
582.8734
724.6306
756.4696
842.6037
929.1489
0.199974 0.46182 0.062388
500.6705
582.3033
707.5362
745.8375
856.6539
926.3449
0.199974 0.46182 0.124775
461.5163
580.5369
667.3509
741.1285
880.1124
928.0758
0.199974 0.46182 0.187163
443.9877
565.6479
661.4159
742.0384
907.7694
943.7024
0.199974 0.46182 0.24955
464.4867
536.5245
695.0243
741.4192
939.5356
960.3079
0.199974 0.46182 -0.311938
502.2039
502.2039
727.5098
727.5098
960.7088
960.7088
P	=	11000.0	V	=	65.35036	E	=	-654.04763391
0.0 0.0 0.0
-0.0
0.0
0.0
555.5125
555.5125
1096.7713
0.0 0.0 0.062349
60.3596
60.3596
191.3659
542.888
542.888
1081.3363
0.0 0.0 0.124697
135.6307
135.6307
372.9563
510.5367
510.5367
1037.9254
0.0 0.0 0.187046
222.3013
222.3013
469.6931
469.6931
536.5004
973.0049
0.0 0.0 0.249395
305.6281
305.6282
425.868
425.868
677.0451
891.7002
0.0 0.0 -0.311744
373.7811
373.7811
373.7811
373.7811
794.2785
794.2785
0.0 0.115478 0.0
147.9103
158.4448
337.9845
575.3181
612.7257
1073.9098
0.0 0.115478 0.062349
163.0966
177.1583
367.0637
561.0301
598.6626
1058.7379
0.0 0.115478 0.124697
195.4276
225.1925
460.6557
526.4883
564.0499
1018.2766
0.0 0.115478 0.187046
264.8809
289.3401
488.2115
523.4048
588.313
962.6554
0.0 0.115478 0.249395
344.4186
365.5185
452.4891
482.5142
712.4769
896.7767
0.0 0.115478 -0.311744
408.574
408.574
432.5525
432.5525
815.8372
815.8372
0.0 0.230956 0.0
285.2208
292.7741
616.8629
621.9271
741.7525
1010.4497
0.0 0.230956 0.062349
283.2496
289.6101
605.7462
626.0627
723.6991
999.5776
0.0 0.230956 0.124697
298.0598
301.2431
569.3954
655.3444
686.8028
974.8357
0.0 0.230956 0.187046
353.2514
357.2026
536.5082
623.5582
737.503
949.5913
0.0 0.230956 0.249395
425.3047
443.0049
513.6299
576.819
817.9444
924.1076
0.0 0.230956 -0.311744
482.1653
482.1653
520.3126
520.3126
883.7305
883.7305
0.0 0.346434 0.0
389.4821
404.3177
669.9378
798.8493
878.4749
921.1884
0.0 0.346434 0.062349
387.2628
395.6027
655.6969
794.3679
846.4219
939.9117
0.0 0.346434 0.124697
389.9031
396.5537
624.2354
748.2036
843.6291
958.3386
0.0 0.346434 0.187046
423.2599
438.3058
596.6078
684.0163
883.8796
973.4447
0.0 0.346434 0.249395
493.3371
499.4084
577.4563
627.3099
935.0443
982.3207
0.0 0.346434 -0.311744
549.6198
549.6198
566.9087
566.9087
971.8283
971.8283
0.0 0.461912 0.0
446.1815
498.8536
701.5226
830.6022
894.7471
971.3681
0.0 0.461912 0.062349
447.8157
493.4876
691.9731
804.6934
902.4943
983.3387
0.0 0.461912 0.124697
460.955
485.6768
669.6223
751.2851
923.6351
1007.989
0.0 0.461912 0.187046
495.2286
496.079
645.729
694.3306
960.3671
1031.6058
0.0 0.461912 0.249395
532.2893
545.6182
622.4076
640.141
1003.2179
1043.6539
0.0 0.461912 -0.311744
585.3856
585.3856
590.8842
590.8842
1034.7065
1034.7065
0.0 -0.577391 0.0
464.7796
542.9917
711.8992
784.7642
925.3448
1001.4647
0.0 -0.577391 0.062349
468.3319
539.2415
704.8686
771.1225
929.721
1011.936
0.0 -0.577391 0.124697
483.6863
530.6452
687.126
736.3303
947.6564
1036.0189
0.0 -0.577391 0.187046
516.3852
529.3668
664.5459
690.855
982.1414
1059.0623
0.0 -0.577391 0.249395
549.4348
560.8401
638.2327
640.709
1023.5158
1068.1732
0.0 -0.577391 -0.311744
590.3761
590.3761
604.1011
604.1011
1055.9304
1055.9304
0.100007 0.173217 0.0
250.0977
278.4023
523.181
637.0154
693.2393
1030.6942
0.100007 0.173217 0.062349
250.6424
275.7866
533.0912
624.8109
676.7772
1017.6133
0.100007 0.173217 0.124697
269.2548
288.8516
548.4598
622.265
636.8028
986.15
0.100007 0.173217 0.187046
328.5488
341.8735
530.7558
591.7315
690.9587
950.2651
0.100007 0.173217 0.249395
409.8058
412.8792
511.704
548.9715
782.7288
912.3325
0.100007 0.173217 -0.311744
458.1686
458.1686
506.3853
506.3853
859.8706
859.8706
0.100007 0.288695 0.0
365.2617
395.2856
635.5455
767.7882
814.4338
953.8744
0.100007 0.288695 0.062349
350.4502
392.4984
627.84
758.6034
797.046
952.5124
0.100007 0.288695 0.124697
335.5897
400.6877
609.2776
715.9464
793.4598
950.1597
0.100007 0.288695 0.187046
369.4024
443.3477
593.3197
659.4557
832.441
951.5176
0.100007 0.288695 0.249395
443.5087
500.6883
584.6301
616.4815
889.0631
951.3878
0.100007 0.288695 -0.311744
506.7511
506.7511
588.9873
588.9873
933.3908
933.3908
0.100007 0.404173 0.0
467.7324
473.0648
698.6921
858.5561
861.7689
931.0207
0.100007 0.404173 0.062349
447.3603
478.646
687.8108
811.7703
879.6838
944.181
0.100007 0.404173 0.124697
422.773
490.4147
662.4615
749.6646
895.6433
966.9176
0.100007 0.404173 0.187046
430.5551
526.0561
634.8734
700.8281
928.6125
989.621
0.100007 0.404173 0.249395
477.8264
561.0723
620.0563
673.7391
970.5681
1004.9489
0.100007 0.404173 -0.311744
533.469
533.469
647.8376
647.8376
1000.1954
1000.1954
0.100007 0.519651 0.0
511.9744
542.2323
728.7641
785.2768
905.9903
988.1436
0.100007 0.519651 0.062349
501.8937
543.3569
711.3842
776.8202
910.4264
994.5852
0.100007 0.519651 0.124697
483.2572
552.9288
672.3691
754.8413
927.8355
1012.2107
0.100007 0.519651 0.187046
479.4721
581.4642
631.8636
730.0185
962.2931
1033.2499
0.100007 0.519651 0.249395
503.728
584.3097
635.0003
706.3493
1004.4467
1045.0263
0.100007 0.519651 -0.311744
544.5298
544.5298
676.0558
676.0558
1036.041
1036.041
0.200014 0.346434 0.0
456.3295
517.5905
687.4779
850.3153
872.8271
898.9501
0.200014 0.346434 0.062349
435.5006
512.9755
683.0859
796.8228
894.4579
904.5764
0.200014 0.346434 0.124697
399.5933
514.5261
676.1858
724.2575
893.616
931.4878
0.200014 0.346434 0.187046
402.8209
538.5291
669.4024
678.3335
914.1198
955.8359
0.200014 0.346434 0.249395
455.6436
549.7285
661.5633
686.9252
949.1722
974.7548
0.200014 0.346434 -0.311744
515.7966
515.7966
682.534
682.534
974.3685
974.3685
0.200014 0.461912 0.0
541.0295
601.5147
747.5931
786.0861
872.1245
960.6303
0.200014 0.461912 0.062349
516.8249
598.661
729.2039
770.3601
885.6554
956.5375
0.200014 0.461912 0.124697
470.88
593.3472
685.0104
759.111
907.5329
956.6801
0.200014 0.461912 0.187046
452.3635
578.9963
678.2345
759.2093
935.9355
973.3186
0.200014 0.461912 0.249395
478.8931
553.3779
716.3284
762.5725
970.9968
992.7521
0.200014 0.461912 -0.311744
520.7964
520.7964
751.3285
751.3285
994.3606
994.3606
P	=	14000.24	V	=	60.79506	E	=	-653.66248755
0.0 0.0 0.0
-0.0
0.0
0.0
572.918
572.918
1191.0613
0.0 0.0 0.062247
99.057
99.057
218.3375
569.1888
569.1888
1176.9609
0.0 0.0 0.124495
187.3301
187.3301
421.0817
553.8735
553.8735
1135.4355
0.0 0.0 0.186742
262.2622
262.2622
519.7674
519.7674
598.3055
1068.9049
0.0 0.0 0.248989
330.5711
330.5711
465.6641
465.6641
748.1111
980.9489
0.0 0.0 -0.311237
399.2223
399.2223
399.2223
399.2223
874.2611
874.2611
0.0 0.115527 0.0
161.2688
171.3926
371.0199
599.4317
641.963
1165.7746
0.0 0.115527 0.062247
196.5769
211.6827
411.7071
594.141
636.5967
1153.9554
0.0 0.115527 0.124495
251.9503
282.0879
522.7899
576.3592
618.273
1118.9467
0.0 0.115527 0.186742
313.6709
341.8093
542.9921
582.6989
658.0553
1062.3446
0.0 0.115527 0.248989
375.1255
402.2192
494.5114
530.2097
784.4187
986.7099
0.0 0.115527 -0.311237
436.3492
436.3492
466.8413
466.8413
894.0342
894.0342
0.0 0.231054 0.0
309.4331
316.0968
658.1302
675.5146
794.6253
1096.5887
0.0 0.231054 0.062247
328.052
328.9856
651.1794
693.1374
784.2538
1092.8912
0.0 0.231054 0.124495
363.8287
370.7185
631.3107
732.6116
765.3538
1079.9629
0.0 0.231054 0.186742
412.0093
424.6899
600.7906
698.7818
823.2919
1054.6985
0.0 0.231054 0.248989
464.8069
490.1115
561.8145
636.7335
897.4816
1015.7781
0.0 0.231054 -0.311237
515.9115
515.9115
563.9776
563.9776
963.1762
963.1762
0.0 0.346582 0.0
419.6874
436.9926
712.3925
870.657
954.2807
1001.1658
0.0 0.346582 0.062247
429.7514
443.4243
706.8869
869.9985
929.6785
1028.6487
0.0 0.346582 0.124495
457.8593
460.6162
690.8567
832.9834
938.3132
1060.379
0.0 0.346582 0.186742
490.9322
498.5484
665.3934
767.5248
979.8729
1077.2919
0.0 0.346582 0.248989
541.9243
544.9088
631.6001
691.809
1024.3221
1076.5801
0.0 0.346582 -0.311237
590.6848
590.6848
612.6918
612.6918
1058.4187
1058.4187
0.0 0.462109 0.0
480.13
538.5624
743.2452
905.6486
973.6787
1059.5558
0.0 0.462109 0.062247
490.6916
541.0951
741.0093
882.9903
987.0997
1075.5832
0.0 0.462109 0.124495
518.1297
545.6554
731.8517
834.7485
1016.9104
1107.8361
0.0 0.462109 0.186742
554.584
554.6072
711.401
773.2975
1056.3413
1133.3782
0.0 0.462109 0.248989
581.22
595.3159
678.7082
702.8424
1096.3946
1140.4936
0.0 0.462109 -0.311237
633.5011
633.5011
637.9865
637.9865
1126.9703
1126.9703
0.0 -0.577636 0.0
499.8954
585.9163
752.0987
857.7125
1006.8078
1092.9565
0.0 -0.577636 0.062247
511.0834
586.8749
751.5436
846.7292
1014.4942
1106.4924
0.0 -0.577636 0.124495
538.9982
585.8283
745.7581
815.0643
1038.6087
1135.9758
0.0 -0.577636 0.186742
574.0346
584.5806
727.4127
764.9047
1076.0974
1160.4688
0.0 -0.577636 0.248989
598.7062
612.2118
694.666
701.8004
1116.9749
1166.102
0.0 -0.577636 -0.311237
640.1285
640.1285
653.5619
653.5619
1150.0077
1150.0077
0.100049 0.173291 0.0
271.6747
302.3047
566.1316
680.9166
737.4107
1118.5323
0.100049 0.173291 0.062247
293.2977
315.2261
584.2671
679.184
729.3721
1111.7142
0.100049 0.173291 0.124495
339.5191
350.3797
609.1154
699.2591
704.7734
1090.6531
0.100049 0.173291 0.186742
393.3879
399.1295
593.0737
662.9359
772.8773
1054.4972
0.100049 0.173291 0.248989
451.3861
453.7117
559.9312
605.7917
859.3633
1003.3585
0.100049 0.173291 -0.311237
491.0612
491.0612
548.0401
548.0401
937.9246
937.9246
0.100049 0.288818 0.0
395.1414
428.4043
678.9648
833.7297
882.5595
1036.0112
0.100049 0.288818 0.062247
398.0592
438.016
680.3338
829.7728
874.7141
1043.4942
0.100049 0.288818 0.124495
410.9025
464.7219
677.7899
798.0562
886.1976
1055.1096
0.100049 0.288818 0.186742
440.7738
505.0184
664.0407
742.0566
926.7
1057.0797
0.100049 0.288818 0.248989
490.583
546.4472
641.2823
680.2901
974.7225
1044.1435
0.100049 0.288818 -0.311237
545.0385
545.0385
636.5632
636.5632
1015.9971
1015.9971
0.100049 0.404345 0.0
505.3408
511.4024
745.4256
933.206
938.5369
1016.0172
0.100049 0.404345 0.062247
495.1003
527.9298
742.7883
889.8168
966.0228
1034.4066
0.100049 0.404345 0.124495
489.7195
554.3569
732.4996
835.8632
992.981
1067.707
0.100049 0.404345 0.186742
497.294
588.8151
709.0044
782.8809
1027.2554
1092.1669
0.100049 0.404345 0.248989
526.7154
612.2353
681.2004
738.7027
1062.4036
1099.5226
0.100049 0.404345 -0.311237
575.7387
575.7387
700.9655
700.9655
1088.6881
1088.6881
0.100049 0.519872 0.0
552.7102
586.0319
775.6665
858.0677
985.5222
1079.4415
0.100049 0.519872 0.062247
549.7366
594.6175
766.6981
851.6188
995.2333
1089.4651
0.100049 0.519872 0.124495
543.3227
616.2337
741.4171
833.2471
1021.674
1113.0816
0.100049 0.519872 0.186742
539.9708
646.105
702.8424
805.6058
1058.9523
1134.6324
0.100049 0.519872 0.248989
553.2574
640.6281
694.6202
771.3206
1097.7756
1141.0004
0.100049 0.519872 -0.311237
590.3645
590.3645
732.7106
732.7106
1127.7553
1127.7553
0.200099 0.346582 0.0
493.2398
562.0341
737.4488
920.5978
950.3448
983.3828
0.200099 0.346582 0.062247
486.1322
565.5495
742.9612
873.0699
984.7999
991.6762
0.200099 0.346582 0.124495
474.3044
579.459
752.614
811.8547
993.619
1033.5155
0.200099 0.346582 0.186742
477.1558
601.7866
755.5871
757.0188
1013.8688
1059.6187
0.200099 0.346582 0.248989
506.6787
601.0862
728.3478
753.0704
1039.2171
1067.7965
0.200099 0.346582 -0.311237
556.6187
556.6187
739.6382
739.6382
1059.603
1059.603
0.200099 0.462109 0.0
586.2246
652.4887
805.0583
858.6384
947.3107
1050.9165
0.200099 0.462109 0.062247
570.7312
657.6762
797.0686
845.1533
970.5281
1051.2675
0.200099 0.462109 0.124495
541.912
664.3751
767.4407
842.5955
1006.149
1058.4768
0.200099 0.462109 0.186742
524.744
650.2917
759.2735
842.8399
1036.2421
1074.4191
0.200099 0.462109 0.248989
533.2698
609.6857
785.4373
834.9556
1062.7778
1085.0161
0.200099 0.462109 -0.311237
565.5633
565.5633
815.5417
815.5417
1081.0644
1081.0644
P	=	14999.92	V	=	59.51807	E	=	-653.53665169
0.0 0.0 0.0
0.0
0.0
0.0
581.057
581.057
1219.8551
0.0 0.0 0.062231
116.9469
116.9469
231.6962
581.7757
581.7757
1207.0439
0.0 0.0 0.124463
212.9287
212.9287
442.0875
574.3017
574.3017
1167.2767
0.0 0.0 0.186694
282.5028
282.5028
542.0932
542.0932
620.0083
1099.3018
0.0 0.0 0.248926
341.0083
341.0083
481.6189
481.6189
767.7674
1006.249
0.0 0.0 -0.311157
407.9285
407.9285
407.9285
407.9285
894.7013
894.7013
0.0 0.11553 0.0
176.1219
181.7986
385.5971
610.9109
656.5111
1195.8681
0.0 0.11553 0.062231
219.1539
235.5411
432.9909
611.2754
655.8412
1186.2002
0.0 0.11553 0.124463
286.6773
315.5938
551.9645
603.2778
645.6657
1154.516
0.0 0.11553 0.186694
343.0805
371.9153
571.6314
611.4807
686.6849
1096.9932
0.0 0.11553 0.248926
390.8653
421.1685
514.3551
551.8527
808.5001
1015.4953
0.0 0.11553 -0.311157
447.7091
447.7091
481.7873
481.7873
917.5242
917.5242
0.0 0.231059 0.0
331.7563
331.8894
675.0551
698.9827
819.8228
1128.7585
0.0 0.231059 0.062231
356.8667
360.2982
675.3825
722.5256
814.1666
1128.9717
0.0 0.231059 0.124463
407.3636
415.8313
667.8196
769.9069
804.1296
1122.3152
0.0 0.231059 0.186694
451.5208
466.8438
638.4937
736.7501
861.8055
1096.7693
0.0 0.231059 0.248926
487.4375
518.6776
587.2801
666.2874
929.0533
1050.4446
0.0 0.231059 -0.311157
531.3244
531.3244
586.5748
586.5748
992.0291
992.0291
0.0 0.346589 0.0
434.7799
458.3327
730.6641
896.5688
984.6428
1032.4867
0.0 0.346589 0.062231
454.9985
472.9529
732.0842
901.4073
963.1539
1065.2763
0.0 0.346589 0.124463
497.457
502.3961
727.6107
872.7405
978.6403
1104.1158
0.0 0.346589 0.186694
531.4418
536.0719
702.9713
807.4462
1020.4619
1120.5471
0.0 0.346589 0.248926
568.1654
570.1125
657.5419
722.4814
1058.4107
1112.4027
0.0 0.346589 -0.311157
607.4481
607.4481
635.5665
635.5665
1089.1662
1089.1662
0.0 0.462119 0.0
491.7674
556.5676
758.6826
931.9046
998.6828
1089.1818
0.0 0.462119 0.062231
509.071
564.3812
761.6068
912.1698
1016.6753
1108.8586
0.0 0.462119 0.124463
546.481
577.2152
761.1429
869.0261
1053.6403
1146.4158
0.0 0.462119 0.186694
582.5028
585.38
741.7639
806.3891
1093.8009
1171.4635
0.0 0.462119 0.248926
602.7357
614.6413
701.1667
727.1283
1128.6211
1172.9764
0.0 0.462119 -0.311157
650.8414
650.8414
653.7541
653.7541
1156.0253
1156.0253
0.0 -0.577648 0.0
509.7879
603.3824
765.4929
879.935
1030.67
1121.6017
0.0 -0.577648 0.062231
525.9821
608.3291
769.1266
871.571
1042.3788
1137.965
0.0 -0.577648 0.124463
561.4638
613.5396
770.5309
843.9066
1073.0233
1171.6072
0.0 -0.577648 0.186694
596.633
611.2678
753.5397
792.1616
1111.3262
1195.5373
0.0 -0.577648 0.248926
617.0126
629.1339
715.0091
721.2703
1147.6413
1196.5049
0.0 -0.577648 -0.311157
654.071
654.071
668.5301
668.5301
1177.7325
1177.7325
0.100052 0.173294 0.0
293.1266
319.0341
584.2873
701.5407
758.2639
1150.3632
0.100052 0.173294 0.062231
324.695
342.8901
609.1817
706.3363
755.4473
1147.0037
0.100052 0.173294 0.124463
383.6532
391.9653
644.0545
736.7376
739.78
1131.5256
0.100052 0.173294 0.186694
434.3943
436.5447
629.0547
699.0822
809.7173
1095.0019
0.100052 0.173294 0.248926
473.271
480.4379
585.0668
633.4372
889.2522
1036.7468
0.100052 0.173294 -0.311157
507.3185
507.3185
567.9963
567.9963
965.4495
965.4495
0.100052 0.288824 0.0
418.4322
447.5535
700.534
858.6148
910.8137
1068.715
0.100052 0.288824 0.062231
430.6686
467.1256
709.0578
860.6233
908.254
1081.0596
0.100052 0.288824 0.124463
458.3562
507.2968
717.8215
838.6633
928.5337
1100.2065
0.100052 0.288824 0.186694
486.7924
545.0055
704.2643
783.5947
968.8688
1101.8179
0.100052 0.288824 0.248926
520.8333
572.6807
669.9574
711.719
1008.9595
1080.5835
0.100052 0.288824 -0.311157
565.8806
565.8806
658.618
658.618
1046.4553
1046.4553
0.100052 0.404354 0.0
526.2447
528.5604
766.9027
958.5961
968.6375
1046.1018
0.100052 0.404354 0.062231
522.0619
553.9099
770.0714
922.2154
998.5483
1069.926
0.100052 0.404354 0.124463
529.3234
590.7007
769.4308
876.0413
1033.8872
1110.6641
0.100052 0.404354 0.186694
536.6376
623.7943
746.7946
822.2921
1068.4781
1134.6626
0.100052 0.404354 0.248926
553.1141
637.5338
708.6564
767.5994
1096.4278
1134.4665
0.100052 0.404354 -0.311157
595.2464
595.2464
722.0784
722.0784
1118.7155
1118.7155
0.100052 0.519883 0.0
567.4534
605.8067
794.093
883.239
1010.2228
1109.1698
0.100052 0.519883 0.062231
571.0688
618.7974
789.9207
880.3622
1025.0432
1122.9648
0.100052 0.519883 0.124463
575.0011
647.3525
772.8962
867.6468
1059.5146
1152.1881
0.100052 0.519883 0.186694
571.7396
676.0396
735.0222
839.0523
1097.3385
1173.0519
0.100052 0.519883 0.248926
574.6785
663.0494
717.6384
796.7004
1129.9563
1173.1513
0.100052 0.519883 -0.311157
606.2
606.2
752.0395
752.0395
1156.1631
1156.1631
0.200103 0.346589 0.0
516.393
583.844
763.9372
946.2782
982.5704
1012.4599
0.200103 0.346589 0.062231
517.6742
594.5802
776.0741
905.8201
1019.7323
1028.5098
0.200103 0.346589 0.124463
520.3073
619.3279
795.1663
855.0196
1038.0301
1079.2204
0.200103 0.346589 0.186694
523.1785
640.8016
798.5008
799.2834
1058.0866
1105.0223
0.200103 0.346589 0.248926
537.4937
630.3553
759.4668
783.9544
1074.2982
1104.1184
0.200103 0.346589 -0.311157
578.9471
578.9471
763.536
763.536
1089.7861
1089.7861
0.200103 0.462119 0.0
609.7253
674.1987
831.9604
888.5478
972.6402
1082.1059
0.200103 0.462119 0.062231
601.1056
686.0544
829.6184
879.6937
1003.9136
1087.7333
0.200103 0.462119 0.124463
584.906
702.9146
809.7693
885.4511
1050.1075
1103.2687
0.200103 0.462119 0.186694
567.9096
690.3025
800.0156
884.5086
1080.1665
1118.5072
0.200103 0.462119 0.248926
562.1322
639.0374
815.1627
866.6328
1097.4189
1120.0033
0.200103 0.462119 -0.311157
586.2141
586.2141
840.276
840.276
1110.3709
1110.3709

weight
   0.0000000   0.0000000   0.0000000   0.0020000   
   0.0000000   0.0000000   0.1000000   0.0040000   
   0.0000000   0.0000000   0.2000000   0.0040000   
   0.0000000   0.0000000   0.3000000   0.0040000   
   0.0000000   0.0000000   0.4000000   0.0040000   
   0.0000000   0.0000000  -0.5000000   0.0020000   
   0.0000000   0.1000000   0.0000000   0.0120000   
   0.0000000   0.1000000   0.1000000   0.0240000   
   0.0000000   0.1000000   0.2000000   0.0240000   
   0.0000000   0.1000000   0.3000000   0.0240000   
   0.0000000   0.1000000   0.4000000   0.0240000   
   0.0000000   0.1000000  -0.5000000   0.0120000   
   0.0000000   0.2000000   0.0000000   0.0120000   
   0.0000000   0.2000000   0.1000000   0.0240000   
   0.0000000   0.2000000   0.2000000   0.0240000   
   0.0000000   0.2000000   0.3000000   0.0240000   
   0.0000000   0.2000000   0.4000000   0.0240000   
   0.0000000   0.2000000  -0.5000000   0.0120000   
   0.0000000   0.3000000   0.0000000   0.0120000   
   0.0000000   0.3000000   0.1000000   0.0240000   
   0.0000000   0.3000000   0.2000000   0.0240000   
   0.0000000   0.3000000   0.3000000   0.0240000   
   0.0000000   0.3000000   0.4000000   0.0240000   
   0.0000000   0.3000000  -0.5000000   0.0120000   
   0.0000000   0.4000000   0.0000000   0.0120000   
   0.0000000   0.4000000   0.1000000   0.0240000   
   0.0000000   0.4000000   0.2000000   0.0240000   
   0.0000000   0.4000000   0.3000000   0.0240000   
   0.0000000   0.4000000   0.4000000   0.0240000   
   0.0000000   0.4000000  -0.5000000   0.0120000   
   0.0000000  -0.5000000   0.0000000   0.0060000   
   0.0000000  -0.5000000   0.1000000   0.0120000   
   0.0000000  -0.5000000   0.2000000   0.0120000   
   0.0000000  -0.5000000   0.3000000   0.0120000   
   0.0000000  -0.5000000   0.4000000   0.0120000   
   0.0000000  -0.5000000  -0.5000000   0.0060000   
   0.1000000   0.1000000   0.0000000   0.0120000   
   0.1000000   0.1000000   0.1000000   0.0240000   
   0.1000000   0.1000000   0.2000000   0.0240000   
   0.1000000   0.1000000   0.3000000   0.0240000   
   0.1000000   0.1000000   0.4000000   0.0240000   
   0.1000000   0.1000000  -0.5000000   0.0120000   
   0.1000000   0.2000000   0.0000000   0.0240000   
   0.1000000   0.2000000   0.1000000   0.0480000   
   0.1000000   0.2000000   0.2000000   0.0480000   
   0.1000000   0.2000000   0.3000000   0.0480000   
   0.1000000   0.2000000   0.4000000   0.0480000   
   0.1000000   0.2000000  -0.5000000   0.0240000   
   0.1000000   0.3000000   0.0000000   0.0240000   
   0.1000000   0.3000000   0.1000000   0.0480000   
   0.1000000   0.3000000   0.2000000   0.0480000   
   0.1000000   0.3000000   0.3000000   0.0480000   
   0.1000000   0.3000000   0.4000000   0.0480000   
   0.1000000   0.3000000  -0.5000000   0.0240000   
   0.1000000   0.4000000   0.0000000   0.0240000   
   0.1000000   0.4000000   0.1000000   0.0480000   
   0.1000000   0.4000000   0.2000000   0.0480000   
   0.1000000   0.4000000   0.3000000   0.0480000   
   0.1000000   0.4000000   0.4000000   0.0480000   
   0.1000000   0.4000000  -0.5000000   0.0240000   
   0.2000000   0.2000000   0.0000000   0.0120000   
   0.2000000   0.2000000   0.1000000   0.0240000   
   0.2000000   0.2000000   0.2000000   0.0240000   
   0.2000000   0.2000000   0.3000000   0.0240000   
   0.2000000   0.2000000   0.4000000   0.0240000   
   0.2000000   0.2000000  -0.5000000   0.0120000   
   0.2000000   0.3000000   0.0000000   0.0240000   
   0.2000000   0.3000000   0.1000000   0.0480000   
   0.2000000   0.3000000   0.2000000   0.0480000   
   0.2000000   0.3000000   0.3000000   0.0480000   
   0.2000000   0.3000000   0.4000000   0.0480000   
   0.2000000   0.3000000  -0.5000000   0.0240000   
   0.2000000   0.4000000   0.0000000   0.0120000   
   0.2000000   0.4000000   0.1000000   0.0240000   
   0.2000000   0.4000000   0.2000000   0.0240000   
   0.2000000   0.4000000   0.3000000   0.0240000   
   0.2000000   0.4000000   0.4000000   0.0240000   
   0.2000000   0.4000000  -0.5000000   0.0120000   
   0.3000000   0.3000000   0.0000000   0.0120000   
   0.3000000   0.3000000   0.1000000   0.0240000   
   0.3000000   0.3000000   0.2000000   0.0240000   
   0.3000000   0.3000000   0.3000000   0.0240000   
   0.3000000   0.3000000   0.4000000   0.0240000   
   0.3000000   0.3000000  -0.5000000   0.0120000   