Number of volumes (nv), q-vectors (nq), normal mode (np), formula units(nm)
10 84 6 1

P	=	-0.32	V	=	138.4141	E	=	-655.45780619
0.0 0.0 0.0
-0.0
-0.0
0.0
249.4336
249.4336
303.3916
0.0 0.0 0.1
-160.1588
-160.1588
-158.4161
164.1442
164.1442
222.4461
0.0 0.0 0.2
-150.1685
-150.1685
-60.2686
85.7859
85.7859
185.5296
0.0 0.0 0.3
149.3713
149.3713
162.5883
162.5883
253.5719
262.9062
0.0 0.0 0.4
-85.4691
-85.4691
119.852
119.852
144.6028
217.9232
0.0 0.0 -0.5
-181.4372
-181.4372
-170.938
115.2245
115.2245
185.3468
0.0 0.1 0.0
-82.9205
-8.5569
30.2602
237.7391
243.5605
285.6646
0.0 0.1 0.1
-184.009
-155.2347
-137.615
153.3131
162.9933
206.0649
0.0 0.1 0.2
-159.0192
-143.8159
-71.1583
61.2724
93.5642
171.3533
0.0 0.1 0.3
131.9408
145.6956
149.6222
162.8091
237.0301
246.4027
0.0 0.1 0.4
-100.6175
-77.9712
101.352
124.0619
128.0784
202.6062
0.0 0.1 -0.5
-199.3547
-175.5877
-153.6506
99.8909
118.0898
170.8169
0.0 0.2 0.0
-134.3729
32.6752
77.5377
216.5428
232.7416
243.2614
0.0 0.2 0.1
-210.5902
-139.7606
-83.8159
111.4956
162.5059
183.1238
0.0 0.2 0.2
-191.185
-123.5702
-94.9993
52.2889
110.823
163.5899
0.0 0.2 0.3
70.2872
90.5223
154.8405
167.0719
214.8767
223.0065
0.0 0.2 0.4
-145.2118
-49.4624
-44.3189
130.6904
135.3546
187.5095
0.0 0.2 -0.5
-224.7803
-158.438
-100.6098
-44.0736
126.0188
160.1296
0.0 0.3 0.0
-125.8108
76.7237
139.2584
206.1152
216.3107
230.7266
0.0 0.3 0.1
-207.2276
-112.7715
48.3554
104.2483
168.2279
186.0491
0.0 0.3 0.2
-200.7396
-127.5928
-87.8612
130.2016
138.7533
180.455
0.0 0.3 0.3
-37.2414
39.5509
170.7926
180.8399
227.4371
231.8893
0.0 0.3 0.4
-162.2366
-97.9977
69.9548
151.9045
174.2455
200.8048
0.0 0.3 -0.5
-224.2572
-132.5195
-104.9302
93.8021
138.0653
171.5948
0.0 0.4 0.0
74.0971
121.0768
201.3768
202.5362
241.4686
243.0506
0.0 0.4 0.1
-157.985
-74.9205
78.1478
171.0673
180.6956
206.7479
0.0 0.4 0.2
-169.0736
-82.9664
-34.6534
149.9322
194.5419
208.9589
0.0 0.4 0.3
102.3966
116.9301
193.0722
201.8315
266.0539
267.8979
0.0 0.4 0.4
-123.9364
32.1923
109.3807
171.9595
222.9546
232.4537
0.0 0.4 -0.5
-185.6444
-105.1444
-73.6954
152.9356
163.2675
193.2944
0.0 -0.5 0.0
152.6979
178.9363
213.8042
250.9075
254.2262
267.968
0.0 -0.5 0.1
-54.2188
-25.4084
120.5399
192.6697
211.5956
225.3623
0.0 -0.5 0.2
-113.6642
45.6762
90.1071
165.7404
225.4208
237.8501
0.0 -0.5 0.3
170.9345
181.475
210.5409
219.5754
300.0736
302.6185
0.0 -0.5 0.4
25.5441
127.916
134.0983
188.8131
254.2311
265.1213
0.0 -0.5 -0.5
-123.9703
-86.5106
71.5526
165.5489
199.8339
212.4626
0.1 0.1 0.0
-109.883
4.6008
47.9216
228.6998
238.5808
269.6803
0.1 0.1 0.1
-196.8184
-150.2314
-121.4409
140.7237
162.2058
194.3409
0.1 0.1 0.2
-171.7395
-137.3241
-58.434
-26.673
100.0488
164.5575
0.1 0.1 0.3
113.203
128.002
150.3176
163.3258
225.4189
234.5791
0.1 0.1 0.4
-117.8958
-69.4133
75.8825
122.2313
127.9968
193.3246
0.1 0.1 -0.5
-211.2782
-169.7861
-136.9503
76.0631
120.7454
163.2194
0.1 0.2 0.0
-142.0182
29.5094
89.7968
215.4766
227.9246
230.8365
0.1 0.2 0.1
-214.9348
-134.9151
-61.7513
95.086
161.8585
180.7255
0.1 0.2 0.2
-198.1782
-119.0039
-109.2091
74.9312
114.6542
164.2909
0.1 0.2 0.3
44.1708
71.1117
153.4586
165.4456
213.375
220.6054
0.1 0.2 0.4
-154.9892
-77.3299
-31.4006
135.838
138.662
186.8247
0.1 0.2 -0.5
-229.1236
-152.6723
-80.4214
-73.8018
128.2743
160.0956
0.1 0.3 0.0
-131.2869
68.8305
139.1425
194.109
219.0175
227.517
0.1 0.3 0.1
-209.3009
-107.6605
15.146
101.4695
170.5571
185.3536
0.1 0.3 0.2
-203.9289
-135.4469
-78.7878
124.3286
149.0542
179.2305
0.1 0.3 0.3
-57.752
-22.4001
165.6429
175.1884
228.1429
231.6706
0.1 0.3 0.4
-167.123
-108.493
72.9299
147.9029
179.1964
199.8265
0.1 0.3 -0.5
-226.0465
-126.1029
-113.0422
91.0331
144.5884
170.4497
0.1 0.4 0.0
31.2669
109.567
183.466
186.9158
240.7422
242.9979
0.1 0.4 0.1
-167.4423
-69.4261
44.9798
150.6596
190.8896
202.3993
0.1 0.4 0.2
-176.6006
-102.7702
23.5035
143.8714
193.0183
202.1932
0.1 0.4 0.3
78.2876
95.5137
185.5841
193.2011
260.3864
261.5854
0.1 0.4 0.4
-136.1107
-55.1332
110.8753
164.9345
219.6176
225.6152
0.1 0.4 -0.5
-192.3743
-97.9537
-91.6257
135.8548
172.7607
187.8998
0.2 0.2 0.0
-138.7939
59.7074
123.9384
206.9906
214.5141
227.3817
0.2 0.2 0.1
-213.6605
-118.5782
46.8149
80.8673
166.1788
182.4789
0.2 0.2 0.2
-204.404
-131.3514
-94.5761
117.876
131.2599
174.009
0.2 0.2 0.3
-50.1347
20.2493
162.7611
173.2396
220.8287
225.7958
0.2 0.2 0.4
-166.0105
-103.4373
55.8974
145.189
164.3787
194.4983
0.2 0.2 -0.5
-229.3319
-136.6464
-105.8226
64.5997
136.765
166.6716
0.2 0.3 0.0
-119.9746
75.7427
148.7243
174.8434
226.6926
229.9927
0.2 0.3 0.1
-202.1662
-89.9012
-52.446
112.333
180.7238
188.4778
0.2 0.3 0.2
-201.0796
-138.2723
-48.0045
126.0712
169.4465
183.4377
0.2 0.3 0.3
-62.0984
-34.3809
166.7933
174.7347
237.0798
238.7908
0.2 0.3 0.4
-166.0512
-111.9996
90.1726
148.2116
195.3333
204.9732
0.2 0.3 -0.5
-220.0926
-122.5485
-105.8785
101.6767
160.0469
173.24
0.2 0.4 0.0
-64.9998
100.1435
146.846
161.2387
236.6861
246.7064
0.2 0.4 0.1
-175.5626
-74.1935
-33.4469
125.6569
192.4612
203.2036
0.2 0.4 0.2
-182.798
-126.3474
70.0886
133.8273
190.1486
194.8778
0.2 0.4 0.3
-3.1763
49.1731
177.0708
182.0801
252.28
252.7613
0.2 0.4 0.4
-148.1658
-95.2034
119.6495
154.6233
214.2922
217.3021
0.2 0.4 -0.5
-197.2466
-121.9565
-61.1216
114.3521
176.1448
185.9061
0.3 0.3 0.0
49.4042
111.2128
180.2938
188.3696
242.0913
245.5791
0.3 0.3 0.1
-163.1454
-63.9696
43.2213
151.2749
193.6864
203.6782
0.3 0.3 0.2
-173.8433
-99.9969
37.8452
144.6495
195.8119
203.4856
0.3 0.3 0.3
82.4593
98.9315
186.3885
193.7004
262.4609
263.5548
0.3 0.3 0.4
-133.1088
-49.1074
114.0065
165.545
222.0705
227.2429
0.3 0.3 -0.5
-188.9039
-96.5881
-87.1602
136.2338
176.1638
188.8688
P	=	199.7	V	=	130.1355	E	=	-655.45249175
0.0 0.0 0.0
-0.0
-0.0
0.0
270.6118
270.6118
343.5256
0.0 0.0 0.1
-127.2216
-127.2216
-101.4156
213.0934
213.0934
300.4321
0.0 0.0 0.2
-96.8319
-96.8319
138.6285
158.7658
158.7658
278.2236
0.0 0.0 0.3
165.9732
165.9732
179.3326
179.3326
285.07
298.6523
0.0 0.0 0.4
51.7212
51.7212
166.9855
166.9855
201.0421
288.4904
0.0 0.0 -0.5
-141.3437
-141.3437
-94.2904
184.8599
184.8599
283.2945
0.0 0.1 0.0
-79.3034
29.171
62.7342
262.2841
266.0414
329.2053
0.0 0.1 0.1
-146.5057
-121.8377
-73.667
210.4907
211.4216
286.858
0.0 0.1 0.2
-105.496
-90.3008
130.403
157.6547
162.0732
265.6834
0.0 0.1 0.3
153.9333
167.801
168.5337
181.2297
271.7398
285.3106
0.0 0.1 0.4
21.3482
60.2974
162.4663
170.1519
189.6224
275.7517
0.0 0.1 -0.5
-154.2928
-136.0795
-73.9324
184.6722
185.0877
270.2192
0.0 0.2 0.0
-126.0304
61.9916
126.1676
250.892
258.3685
295.0772
0.0 0.2 0.1
-179.4917
-102.1496
108.2023
203.6471
210.361
261.4115
0.0 0.2 0.2
-148.7021
-59.5577
141.3734
163.4373
171.9026
251.7799
0.0 0.2 0.3
114.2365
135.0609
176.5369
189.2327
258.1108
269.2261
0.0 0.2 0.4
-100.3218
87.6341
140.6702
179.8461
198.0092
260.9076
0.0 0.2 -0.5
-187.4164
-116.9003
110.5632
177.0435
188.274
250.5433
0.0 0.3 0.0
-107.3819
100.3983
189.5494
258.3358
261.5245
263.4768
0.0 0.3 0.1
-172.5749
-51.8732
186.2359
194.2343
216.7899
260.6352
0.0 0.3 0.2
-159.1691
70.183
121.8942
188.6049
221.915
264.6217
0.0 0.3 0.3
88.1257
113.9465
195.3219
206.1584
277.3551
283.5003
0.0 0.3 0.4
-120.7513
121.144
125.5004
196.7437
241.4698
273.3931
0.0 0.3 -0.5
-184.9772
-73.2232
161.1423
192.8426
198.7729
257.1897
0.0 0.4 0.0
110.0061
141.2035
249.3013
252.2232
266.7712
292.4348
0.0 0.4 0.1
-93.1656
83.1583
196.388
230.5548
245.301
281.7582
0.0 0.4 0.2
-102.3197
119.2271
149.7095
211.0338
272.1432
291.6349
0.0 0.4 0.3
142.4446
158.3599
218.5853
228.5805
316.6816
319.5432
0.0 0.4 0.4
-32.8422
154.9194
158.3534
219.4861
288.6986
303.2559
0.0 0.4 -0.5
-122.1966
64.095
171.7925
215.9285
247.6993
279.0875
0.0 -0.5 0.0
172.5335
203.7126
251.7065
274.9691
295.5453
316.3365
0.0 -0.5 0.1
121.3068
130.343
209.9969
243.2042
282.3252
299.7066
0.0 -0.5 0.2
92.9431
142.2075
190.2248
230.7267
301.501
317.6458
0.0 -0.5 0.3
198.816
210.5196
235.9852
246.7219
349.1015
351.9737
0.0 -0.5 0.4
132.1531
177.1429
200.4873
239.3203
318.8451
332.3789
0.0 -0.5 -0.5
91.0051
104.8795
193.8694
231.3605
280.7992
297.8147
0.1 0.1 0.0
-104.5417
42.7321
88.3447
256.4532
262.4537
316.3391
0.1 0.1 0.1
-162.5991
-115.4254
19.1749
208.1413
210.5818
275.6753
0.1 0.1 0.2
-122.4146
-81.648
136.8488
153.6159
165.6164
257.3452
0.1 0.1 0.3
140.7958
157.1105
170.1856
183.4862
263.2445
276.2888
0.1 0.1 0.4
-55.5398
69.7083
155.9471
173.4677
187.2615
267.1939
0.1 0.1 -0.5
-169.6021
-129.7849
17.9673
183.095
186.0103
260.3266
0.1 0.2 0.0
-132.2821
72.6012
134.8285
250.7375
256.8909
284.9735
0.1 0.2 0.1
-184.9317
-88.7551
122.6647
199.2911
212.8432
256.1304
0.1 0.2 0.2
-158.9884
-32.346
131.0181
170.9922
179.7932
250.1376
0.1 0.2 0.3
99.2789
122.7847
179.0425
191.3172
258.0287
267.9338
0.1 0.2 0.4
-115.685
97.6604
130.0023
183.7755
204.407
259.1881
0.1 0.2 -0.5
-193.4926
-103.8469
126.0633
170.4031
192.9308
247.237
0.1 0.3 0.0
-111.7862
105.7838
182.6642
253.3131
260.6534
263.4469
0.1 0.3 0.1
-175.3507
25.0055
180.3474
184.2682
226.6629
257.1829
0.1 0.3 0.2
-164.5065
89.2149
110.2425
191.123
226.1866
261.1315
0.1 0.3 0.3
71.6149
100.5257
196.2794
206.2229
277.3271
282.4022
0.1 0.3 0.4
-129.0661
105.5603
136.4523
198.8359
244.0923
270.4698
0.1 0.3 -0.5
-187.8691
-37.0386
151.5392
182.612
213.9641
253.4383
0.1 0.4 0.0
89.1723
138.3658
227.3371
236.9385
275.3484
290.3793
0.1 0.4 0.1
-110.9783
98.781
181.6317
217.9806
251.5988
275.406
0.1 0.4 0.2
-118.3383
124.1635
139.9198
211.9408
267.9647
282.9075
0.1 0.4 0.3
122.2267
138.8305
217.605
226.0623
310.2582
312.3496
0.1 0.4 0.4
-71.3933
133.1466
168.0097
218.8307
283.8557
294.7272
0.1 0.4 -0.5
-135.2736
90.1872
155.5936
212.3482
247.7893
271.5185
0.2 0.2 0.0
-123.7292
93.4734
170.7623
256.4426
258.1935
264.8758
0.2 0.2 0.1
-181.8283
-56.8457
167.6686
190.7476
218.456
255.5595
0.2 0.2 0.2
-165.8284
64.6489
116.3689
185.0093
209.7833
257.4691
0.2 0.2 0.3
77.7506
106.0443
190.1315
201.0769
269.3306
276.1684
0.2 0.2 0.4
-128.3961
112.1025
123.0956
193.0936
230.3713
266.2689
0.2 0.2 -0.5
-192.7895
-75.4264
158.6772
171.4307
201.9582
251.066
0.2 0.3 0.0
-92.5711
121.1821
186.1878
235.5278
268.9923
271.2408
0.2 0.3 0.1
-164.8041
82.9128
171.4852
185.657
242.0538
257.8441
0.2 0.3 0.2
-159.8344
90.4775
126.6941
198.1934
242.9967
262.5823
0.2 0.3 0.3
64.8062
92.9846
203.5728
211.7151
285.9714
288.816
0.2 0.3 0.4
-126.6912
93.4236
155.9535
205.2918
258.3889
273.181
0.2 0.3 -0.5
-179.1517
75.4939
139.2983
187.6246
232.5056
253.654
0.2 0.4 0.0
60.0989
145.5587
197.6098
205.7326
279.8299
290.1276
0.2 0.4 0.1
-123.8897
127.7295
154.0299
198.7182
259.4208
267.2442
0.2 0.4 0.2
-130.4374
86.3703
165.7978
212.2771
264.6759
268.1721
0.2 0.4 0.3
87.8973
105.0385
219.2384
224.6243
300.8783
301.3386
0.2 0.4 0.4
-96.0273
94.3373
185.9169
218.3448
278.2603
280.7188
0.2 0.4 -0.5
-144.2233
114.1144
139.3684
201.2393
253.5412
259.6998
0.3 0.3 0.0
98.5494
141.0208
227.9583
233.193
277.7165
292.6262
0.3 0.3 0.1
-103.3289
105.482
179.382
218.7334
254.83
276.2317
0.3 0.3 0.2
-113.429
124.9176
144.581
214.0964
270.3099
283.6628
0.3 0.3 0.3
124.449
140.3195
219.4749
227.6251
312.1581
314.042
0.3 0.3 0.4
-64.608
133.5162
172.0006
220.7349
286.0672
295.8027
0.3 0.3 -0.5
-129.4533
98.346
154.0729
213.7441
250.8298
272.0407
P	=	500.75	V	=	121.3766	E	=	-655.43217843
0.0 0.0 0.0
-0.0
0.0
0.0
296.5677
296.5677
396.7787
0.0 0.0 0.1
-121.3684
-121.3684
-72.1164
243.2896
243.2896
362.0777
0.0 0.0 0.2
-71.9568
-71.9568
184.9281
190.3251
190.3251
340.4559
0.0 0.0 0.3
185.0112
185.0112
199.0812
199.0812
326.2973
342.9826
0.0 0.0 0.4
85.6164
85.6164
194.257
194.257
240.6364
345.1178
0.0 0.0 -0.5
-132.9105
-132.9105
-32.1753
217.989
217.989
348.4706
0.0 0.1 0.0
-72.246
45.1255
88.567
292.2449
293.329
385.0605
0.0 0.1 0.1
-133.7819
-111.2389
40.7857
243.2048
245.4394
350.5853
0.0 0.1 0.2
-71.6662
-56.158
182.0839
195.3359
195.5357
329.3915
0.0 0.1 0.3
179.2973
188.914
194.3686
202.9745
315.9273
332.1573
0.0 0.1 0.4
82.4297
95.33
196.2874
199.2628
233.6948
334.0692
0.0 0.1 -0.5
-138.8453
-123.5889
62.3031
219.8253
223.002
337.1407
0.0 0.2 0.0
-109.9994
86.9747
170.1591
289.018
291.371
356.6053
0.0 0.2 0.1
-163.5844
-75.023
164.581
245.9414
252.3831
327.6096
0.0 0.2 0.2
-116.2644
59.3341
197.6103
208.828
219.2105
316.1865
0.0 0.2 0.3
157.7307
177.1261
202.05
215.2728
309.2361
321.898
0.0 0.2 0.4
-30.5947
123.2718
192.2727
212.8735
250.0708
321.5495
0.0 0.2 -0.5
-169.3508
-90.5272
170.3607
226.7191
231.4597
317.9562
0.0 0.3 0.0
-66.8282
126.5093
241.1708
292.045
312.5034
327.4846
0.0 0.3 0.1
-148.4998
66.6678
244.0676
255.7703
257.8383
323.9378
0.0 0.3 0.2
-123.9938
119.9546
192.4643
228.5519
281.1239
329.235
0.0 0.3 0.3
146.411
167.83
224.1151
235.6113
334.136
341.0796
0.0 0.3 0.4
-63.1086
160.1989
185.8296
232.9764
299.0665
335.7828
0.0 0.3 -0.5
-160.9369
49.713
230.5232
240.4248
252.1294
322.1248
0.0 0.4 0.0
149.3567
165.2948
300.864
301.6836
310.0282
347.774
0.0 0.4 0.1
41.907
125.3572
259.0068
270.492
303.4603
344.5891
0.0 0.4 0.2
31.5472
159.4279
211.1
252.0823
333.0236
356.9154
0.0 0.4 0.3
185.8248
201.7866
248.338
259.2531
374.8651
378.2799
0.0 0.4 0.4
103.3791
191.5836
209.7573
256.9835
348.1204
366.2019
0.0 0.4 -0.5
-64.6271
116.93
237.6026
258.5215
307.828
344.3469
0.0 -0.5 0.0
195.2823
234.0976
299.2053
307.6049
347.0694
371.6703
0.0 -0.5 0.1
156.512
173.5216
264.2617
282.4178
339.9654
362.145
0.0 -0.5 0.2
147.0174
179.4776
240.8971
271.6681
362.52
381.8921
0.0 -0.5 0.3
232.4256
245.136
265.5151
277.3597
406.4961
409.6987
0.0 -0.5 0.4
173.981
209.1495
245.2121
276.881
378.1333
394.0373
0.0 -0.5 -0.5
146.7208
146.7917
250.2934
273.385
340.8244
362.7099
0.1 0.1 0.0
-94.2147
64.2643
122.5669
290.0599
291.1653
374.4546
0.1 0.1 0.1
-148.6818
-99.3857
101.6106
243.9348
247.6213
340.9269
0.1 0.1 0.2
-88.0825
-29.1842
190.6209
197.6603
200.5639
321.7805
0.1 0.1 0.3
172.0749
188.3203
193.4975
207.2092
310.0722
325.3555
0.1 0.1 0.4
66.8151
105.4995
195.9088
204.3825
234.7038
326.6518
0.1 0.1 -0.5
-152.7622
-112.6722
109.9174
222.2743
226.6564
328.2057
0.1 0.2 0.0
-113.7428
103.9311
178.7766
290.747
292.5317
347.9265
0.1 0.2 0.1
-168.4549
-39.6567
177.53
251.072
252.1267
322.051
0.1 0.2 0.2
-128.8886
85.3741
192.1033
214.5267
232.0692
314.4785
0.1 0.2 0.3
147.0753
167.6612
208.4488
220.991
310.3915
321.6713
0.1 0.2 0.4
-64.8421
135.5444
185.8611
219.6722
257.7587
320.1444
0.1 0.2 -0.5
-175.4003
-62.8069
183.7417
229.0381
234.7471
314.0738
0.1 0.3 0.0
-69.8112
139.6568
230.045
300.7253
313.4292
318.2716
0.1 0.3 0.1
-151.1016
99.3775
232.8947
249.528
274.4942
319.7953
0.1 0.3 0.2
-131.7596
139.5275
183.4024
235.0441
285.4153
325.8108
0.1 0.3 0.3
133.7228
155.5554
230.7859
241.1137
333.8439
339.7249
0.1 0.3 0.4
-80.5436
165.9483
182.7108
239.4462
301.7582
332.7818
0.1 0.3 -0.5
-164.0634
91.848
223.42
233.6654
267.185
318.1912
0.1 0.4 0.0
136.1163
169.3871
273.162
296.3227
318.8061
344.9604
0.1 0.4 0.1
-44.5448
144.9711
245.6371
266.5643
306.1692
337.8496
0.1 0.4 0.2
-55.2453
175.3511
197.4192
258.0759
329.029
348.3629
0.1 0.4 0.3
166.6875
182.4423
253.9598
263.1256
368.0087
370.6853
0.1 0.4 0.4
77.048
187.4882
209.4621
261.8654
343.2755
357.6658
0.1 0.4 -0.5
-87.9898
141.9991
223.6176
261.0491
306.8855
336.7518
0.2 0.2 0.0
-93.7343
124.4585
219.1602
294.0154
305.2568
329.5483
0.2 0.2 0.1
-160.8869
67.0475
221.8844
252.0874
262.2213
319.1728
0.2 0.2 0.2
-134.3179
118.5702
187.2495
226.716
268.0808
321.877
0.2 0.2 0.3
137.498
159.7021
221.5469
232.9058
324.9901
332.7516
0.2 0.2 0.4
-80.3244
156.7941
180.865
231.1327
286.9808
328.214
0.2 0.2 -0.5
-171.4113
51.2761
224.7232
227.3527
250.1837
316.1395
0.2 0.3 0.0
21.4925
161.3986
230.6599
300.5335
315.574
321.2301
0.2 0.3 0.1
-135.1242
137.4953
236.8435
241.1765
294.5783
319.4259
0.2 0.3 0.2
-124.7333
159.4687
184.7708
246.0073
303.1385
327.5187
0.2 0.3 0.3
128.0427
148.3946
243.6496
252.1053
342.6933
346.2385
0.2 0.3 0.4
-76.3783
161.1039
201.5677
250.3943
316.8676
335.5786
0.2 0.3 -0.5
-151.3333
134.7793
215.0995
239.5757
288.9638
318.2392
0.2 0.4 0.0
123.0749
188.9319
242.4008
267.5821
329.9566
341.6671
0.2 0.4 0.1
-65.3653
179.3135
223.6591
252.394
318.1996
325.6284
0.2 0.4 0.2
-77.2348
160.3016
217.9355
265.2748
326.7601
332.8986
0.2 0.4 0.3
138.8133
153.1603
264.8511
270.7529
357.7918
358.6054
0.2 0.4 0.4
39.2462
158.5973
234.2756
268.9359
338.2354
342.7414
0.2 0.4 -0.5
-98.022
176.5918
206.4011
256.6206
314.8453
322.3424
0.3 0.3 0.0
143.6732
172.9575
273.4276
291.9783
322.0295
347.1848
0.3 0.3 0.1
-9.53
151.5841
243.1437
267.9126
309.6482
338.5763
0.3 0.3 0.2
-42.743
179.1321
198.7994
261.1173
331.5068
349.1315
0.3 0.3 0.3
167.7367
182.8974
256.9122
265.7742
369.8379
372.2845
0.3 0.3 0.4
82.8437
187.3979
213.9103
264.7397
345.5661
358.6922
0.3 0.3 -0.5
-77.287
149.3711
221.7606
263.2794
310.0275
337.2656
P	=	749.79	V	=	115.9395	E	=	-655.40923886
0.0 0.0 0.0
-0.0
-0.0
0.0
311.3189
311.3189
431.0829
0.0 0.0 0.1
-161.5627
-161.5627
-120.5805
229.6349
229.6349
383.8599
0.0 0.0 0.2
-127.6214
-127.6214
155.9524
155.9524
172.4147
357.8224
0.0 0.0 0.3
194.789
194.789
207.0043
207.0043
352.4708
370.9525
0.0 0.0 0.4
35.6212
35.6212
174.5542
174.5542
245.2678
366.6093
0.0 0.0 -0.5
-179.4973
-179.4973
-111.8109
189.6811
189.6811
365.7518
0.0 0.1 0.0
-66.4377
51.6666
102.9397
309.1827
309.6553
421.0272
0.0 0.1 0.1
-165.0215
-146.9022
-62.2058
235.5445
239.9437
375.2251
0.0 0.1 0.2
-117.6823
-109.914
172.323
175.6194
177.5692
349.5737
0.0 0.1 0.3
192.4941
199.8908
206.2958
212.6418
343.7434
361.5776
0.0 0.1 0.4
51.3763
67.5896
187.0368
187.3777
242.7446
357.8199
0.0 0.1 -0.5
-177.0813
-165.0134
-60.4045
200.7425
206.7738
357.6422
0.0 0.2 0.0
-96.2042
97.7924
195.4211
307.3868
315.4842
395.9411
0.0 0.2 0.1
-179.8266
-101.9091
175.4575
249.6846
263.7866
357.2055
0.0 0.2 0.2
-134.7932
-26.5847
201.7772
204.5288
232.9275
341.5908
0.0 0.2 0.3
179.3783
198.1305
215.782
228.494
340.9469
354.6451
0.0 0.2 0.4
-41.6966
119.0095
201.8594
214.3849
269.9379
349.6998
0.0 0.2 -0.5
-190.9098
-121.6446
176.8451
224.1372
237.7436
343.9245
0.0 0.3 0.0
28.1389
138.9124
272.0391
312.1585
343.2737
367.92
0.0 0.3 0.1
-158.0464
46.8982
264.9278
266.5963
282.1705
352.6839
0.0 0.3 0.2
-134.2869
113.7081
207.7693
232.5933
305.3284
356.7339
0.0 0.3 0.3
173.8019
194.527
240.2069
251.5722
369.5428
376.8222
0.0 0.3 0.4
-55.6157
164.3343
204.5706
240.9873
326.8857
366.2016
0.0 0.3 -0.5
-176.1805
-35.2987
245.2267
249.2121
273.4322
348.2644
0.0 0.4 0.0
172.3923
178.0606
320.3941
333.9988
346.5881
381.9047
0.0 0.4 0.1
-31.214
108.4004
276.0957
279.8701
327.4098
368.835
0.0 0.4 0.2
-51.5969
146.761
220.8686
253.6954
358.6476
380.4477
0.0 0.4 0.3
209.2586
225.3922
265.1583
276.5108
412.1327
415.0794
0.0 0.4 0.4
104.9951
191.5383
223.8682
264.1927
377.9322
394.1187
0.0 0.4 -0.5
-99.2433
85.5279
251.8448
258.9762
329.3867
365.4061
0.0 -0.5 0.0
208.3298
253.178
325.35
329.7387
378.9948
406.8047
0.0 -0.5 0.1
129.6496
162.478
276.5212
281.7895
360.3271
381.4361
0.0 -0.5 0.2
124.7625
152.2028
242.9897
268.4496
385.6643
398.9647
0.0 -0.5 0.3
251.7882
265.071
281.9701
295.1142
444.1369
446.2162
0.0 -0.5 0.4
170.1857
200.363
253.2692
281.6081
406.8487
417.4866
0.0 -0.5 -0.5
99.5142
117.8904
254.8824
266.3969
358.2183
376.7065
0.1 0.1 0.0
-85.6176
73.4419
141.7831
308.1003
309.8492
411.8106
0.1 0.1 0.1
-173.0515
-131.0219
90.6698
241.3433
248.6322
367.8266
0.1 0.1 0.2
-121.5266
-88.3632
185.667
188.0398
193.9584
344.199
0.1 0.1 0.3
188.1913
203.1178
206.1509
218.5489
339.3537
356.0422
0.1 0.1 0.4
41.0997
89.7586
194.1822
198.8028
247.9297
352.2274
0.1 0.1 -0.5
-183.457
-149.5454
90.4292
210.6711
219.4566
351.2212
0.1 0.2 0.0
-97.4738
118.7231
203.8443
311.4894
317.3049
388.0076
0.1 0.2 0.1
-182.3002
-64.4492
190.5313
260.8589
265.291
352.1742
0.1 0.2 0.2
-144.2047
72.0362
198.732
217.0143
248.6314
340.4804
0.1 0.2 0.3
169.7686
189.2193
224.8982
236.8983
342.8733
354.9836
0.1 0.2 0.4
-68.8246
138.0328
197.356
226.3659
279.9075
348.8275
0.1 0.2 -0.5
-194.3915
-90.1686
192.7063
237.4289
240.4671
340.5525
0.1 0.3 0.0
28.8392
156.8698
257.6321
325.2792
343.6574
359.0076
0.1 0.3 0.1
-159.9569
102.2252
251.0569
271.8995
294.5959
347.5058
0.1 0.3 0.2
-142.1011
144.2903
197.1069
245.8401
310.3227
352.2748
0.1 0.3 0.3
160.8046
181.2201
250.7434
260.775
369.2223
375.1571
0.1 0.3 0.4
-76.9918
177.6681
198.9746
252.987
330.2548
362.3165
0.1 0.3 -0.5
-178.7552
88.408
239.7856
248.3993
286.5882
343.2533
0.1 0.4 0.0
162.1211
186.3379
299.5492
333.3835
345.8212
378.5804
0.1 0.4 0.1
-70.1025
144.27
263.6963
281.8879
328.0531
361.9003
0.1 0.4 0.2
-84.5286
177.1063
203.6394
267.2835
355.0251
371.3718
0.1 0.4 0.3
189.2853
204.8246
275.2513
284.5553
404.9366
406.9945
0.1 0.4 0.4
75.1206
198.1352
219.4591
275.2268
373.3297
384.9945
0.1 0.4 -0.5
-116.7672
134.742
235.0376
270.7282
327.798
357.5791
0.2 0.2 0.0
-62.4339
139.5238
247.3661
316.2164
334.2939
370.3685
0.2 0.2 0.1
-170.7226
59.4546
240.4393
269.5847
280.8635
348.3965
0.2 0.2 0.2
-144.9384
117.7674
200.4301
234.2541
291.0859
348.9579
0.2 0.2 0.3
164.1914
185.1384
239.4344
250.4837
359.6243
367.7641
0.2 0.2 0.4
-77.1891
164.1143
197.8642
241.8087
313.8326
358.1057
0.2 0.2 -0.5
-186.5856
19.0109
236.5477
243.8878
266.1096
342.3836
0.2 0.3 0.0
84.9987
182.9006
256.6344
340.7918
343.9582
351.5254
0.2 0.3 0.1
-143.5283
149.2581
255.9614
264.9934
317.4001
344.312
0.2 0.3 0.2
-136.0349
169.0566
199.3403
261.2896
329.4615
351.817
0.2 0.3 0.3
154.8216
173.5826
267.11
275.2127
378.515
381.6038
0.2 0.3 0.4
-73.8291
175.2733
219.3039
268.0356
346.7062
363.5163
0.2 0.3 -0.5
-166.4965
143.0276
232.7701
255.994
310.5925
340.5289
0.2 0.4 0.0
153.9515
213.1585
268.7201
305.0112
359.6356
373.7583
0.2 0.4 0.1
-81.0509
192.9734
243.2532
272.4241
339.1311
349.3102
0.2 0.4 0.2
-99.2521
164.4277
233.1404
282.8126
350.8283
355.694
0.2 0.4 0.3
162.2902
175.844
291.7063
297.4478
393.6049
394.3384
0.2 0.4 0.4
33.9764
168.2161
253.7277
289.3361
366.3532
370.1682
0.2 0.4 -0.5
-122.1146
185.8126
219.1551
274.0671
334.0473
342.6673
0.3 0.3 0.0
169.2552
190.5713
299.6977
328.5807
349.3734
380.8868
0.3 0.3 0.1
-55.7535
152.1829
260.767
283.1822
331.1891
362.2742
0.3 0.3 0.2
-78.443
181.845
203.867
270.8881
357.3278
371.6261
0.3 0.3 0.3
189.7903
204.7805
278.877
287.8937
406.7635
408.5419
0.3 0.3 0.4
79.7813
197.5398
224.2297
278.7221
375.5385
385.6517
0.3 0.3 -0.5
-109.7002
143.7585
232.1866
273.2705
330.5621
357.5797
P	=	999.77	V	=	111.478	E	=	-655.38281469
0.0 0.0 0.0
0.0
0.0
0.0
293.6566
293.6566
496.8892
0.0 0.0 0.1
-120.134
-120.134
85.3941
255.0742
255.0742
460.3926
0.0 0.0 0.2
-56.7339
-56.7339
225.1703
225.1703
257.2082
420.5803
0.0 0.0 0.3
205.3768
205.3768
223.3774
223.3774
385.3105
402.7634
0.0 0.0 0.4
100.6305
100.6305
228.3625
228.3625
304.7964
417.3371
0.0 0.0 -0.5
-130.7858
-130.7858
132.6046
239.1162
239.1162
444.1199
0.0 0.1 0.0
-57.6098
42.2947
106.2028
298.1934
302.0686
481.222
0.0 0.1 0.1
-107.2514
-107.1326
113.8601
260.9605
268.0083
447.2675
0.0 0.1 0.2
17.0489
33.9946
230.9984
234.2382
252.9249
411.5665
0.0 0.1 0.3
204.3148
210.7922
221.9036
227.9518
376.4657
393.9485
0.0 0.1 0.4
114.1564
115.4011
233.306
233.4854
298.0032
408.7487
0.0 0.1 -0.5
-117.1832
-111.9738
144.4914
245.4631
253.0544
432.3918
0.0 0.2 0.0
-76.556
92.2303
206.346
310.9898
327.2683
442.6829
0.0 0.2 0.1
-121.9135
-49.6378
215.0792
276.1114
297.8461
418.3404
0.0 0.2 0.2
27.0518
102.1315
246.1952
250.3315
282.84
399.0245
0.0 0.2 0.3
196.3209
215.56
227.5414
242.3201
372.0709
386.6954
0.0 0.2 0.4
109.96
150.9919
241.2308
247.6577
312.4674
398.4115
0.0 0.2 -0.5
-122.1089
-62.311
226.8067
261.4133
282.382
408.9549
0.0 0.3 0.0
79.1043
146.6294
293.5472
329.6608
365.6357
401.3915
0.0 0.3 0.1
-78.8272
106.1526
295.9796
303.6173
324.2882
402.1643
0.0 0.3 0.2
46.0455
156.6549
261.6191
267.1809
347.5184
408.1462
0.0 0.3 0.3
195.5767
216.5671
253.5487
265.7522
399.4975
407.9018
0.0 0.3 0.4
110.4699
191.3401
249.0478
268.769
364.505
411.0573
0.0 0.3 -0.5
-91.7672
100.6685
281.8307
300.2234
316.3738
402.5355
0.0 0.4 0.0
192.5473
194.6697
349.7863
360.768
373.266
406.1912
0.0 0.4 0.1
146.8082
158.5654
316.6071
329.2145
369.8677
415.8997
0.0 0.4 0.2
145.225
192.4374
280.7642
290.878
404.0018
434.8215
0.0 0.4 0.3
230.2646
247.6001
280.9982
292.4396
443.4371
447.6447
0.0 0.4 0.4
170.5839
222.8584
272.2321
293.5082
417.8974
441.4816
0.0 0.4 -0.5
130.4627
151.9308
303.0937
311.8771
376.505
420.0298
0.0 -0.5 0.0
225.5033
271.1543
355.3057
364.753
401.6622
434.6053
0.0 -0.5 0.1
184.8467
230.3877
331.9227
332.2627
404.7311
434.342
0.0 -0.5 0.2
209.3657
209.9349
304.5484
310.0442
436.669
459.5735
0.0 -0.5 0.3
271.4921
285.7105
300.2271
312.5168
477.4668
480.7009
0.0 -0.5 0.4
225.3325
239.6872
301.3873
313.5495
451.2558
469.2017
0.0 -0.5 -0.5
175.0309
213.8119
319.5382
320.987
409.8959
438.7794
0.1 0.1 0.0
-73.0062
62.042
148.54
302.5706
310.5637
466.9888
0.1 0.1 0.1
-113.7142
-90.9156
153.3085
266.8254
278.9882
435.8514
0.1 0.1 0.2
46.7798
63.272
236.9255
240.7722
257.8816
405.0242
0.1 0.1 0.3
201.9065
215.7257
220.4167
232.812
371.6928
388.6042
0.1 0.1 0.4
116.7772
129.1015
236.4076
238.9536
298.1622
402.8466
0.1 0.1 -0.5
-113.4397
-100.5382
172.0742
251.8601
264.2046
422.5814
0.1 0.2 0.0
-75.1264
105.7538
223.2122
316.8014
334.8129
431.4981
0.1 0.2 0.1
-125.5849
51.3445
230.0278
287.3758
301.5216
410.6459
0.1 0.2 0.2
-44.2814
126.1699
248.5088
255.4263
294.867
396.5154
0.1 0.2 0.3
190.0866
208.885
235.8235
248.7175
374.3534
387.4819
0.1 0.2 0.4
96.8369
165.0551
238.8725
256.1794
320.7254
396.8663
0.1 0.2 -0.5
-128.3863
44.411
239.3457
275.6305
284.1005
403.0393
0.1 0.3 0.0
79.7054
156.83
283.8911
346.7078
368.7129
391.7435
0.1 0.3 0.1
-83.6592
136.1675
285.2218
315.3082
331.1344
396.1306
0.1 0.3 0.2
-25.8907
179.4115
253.1031
279.969
352.1291
403.8871
0.1 0.3 0.3
185.5833
205.6859
263.1625
273.4119
401.4456
408.4937
0.1 0.3 0.4
95.1589
203.8613
244.0486
279.6958
368.4297
408.0397
0.1 0.3 -0.5
-99.0115
136.8067
282.5082
296.0754
328.2079
396.7566
0.1 0.4 0.0
183.2509
201.5147
323.8691
361.5151
380.2276
405.9637
0.1 0.4 0.1
128.9207
184.8182
309.8447
324.147
373.4076
407.9582
0.1 0.4 0.2
123.0394
216.7949
264.2445
306.5519
400.1649
425.4184
0.1 0.4 0.3
212.4763
228.4492
292.7404
301.8434
439.0752
442.3271
0.1 0.4 0.4
151.09
234.3236
262.5948
306.457
414.1168
433.0534
0.1 0.4 -0.5
108.1154
184.6301
293.1124
316.3543
375.6464
410.7757
0.2 0.2 0.0
33.6494
138.1906
270.27
331.6108
357.0109
406.1286
0.2 0.2 0.1
-105.0849
105.9449
275.1422
304.7784
318.5536
399.878
0.2 0.2 0.2
-40.8278
157.7141
253.0729
269.2401
333.3658
401.1996
0.2 0.2 0.3
187.2546
207.7641
251.4862
263.0476
390.6916
399.9393
0.2 0.2 0.4
93.7647
189.0775
242.431
269.0621
351.9391
403.7906
0.2 0.2 -0.5
-114.1691
104.1277
274.3144
292.9927
307.1566
398.1967
0.2 0.3 0.0
115.217
181.9791
288.0311
371.5661
372.8617
379.8022
0.2 0.3 0.1
-37.1294
175.511
292.2492
312.8198
357.0284
390.8998
0.2 0.3 0.2
36.372
206.6357
253.9143
295.6004
371.4986
404.1727
0.2 0.3 0.3
181.8347
200.5405
280.5862
288.8471
413.7111
418.0308
0.2 0.3 0.4
99.3841
215.554
253.7766
295.3578
385.9334
410.8347
0.2 0.3 -0.5
-71.0785
178.8731
289.2401
295.478
353.6625
392.6882
0.2 0.4 0.0
177.3702
224.0715
301.3835
336.2872
389.2171
412.6588
0.2 0.4 0.1
121.6332
223.8316
297.445
312.6782
384.6293
394.8247
0.2 0.4 0.2
109.3459
224.3876
274.879
322.3694
398.1979
408.1946
0.2 0.4 0.3
190.7984
204.733
311.9737
318.0365
433.4466
434.6017
0.2 0.4 0.4
135.2115
220.1475
286.2417
322.4917
410.9941
418.451
0.2 0.4 -0.5
99.5792
226.1792
280.7469
317.196
383.6554
392.5774
0.3 0.3 0.0
190.1692
206.5922
324.2555
356.8799
384.1145
409.5398
0.3 0.3 0.1
136.5874
192.4668
308.9955
324.8834
377.1344
408.5069
0.3 0.3 0.2
127.8165
222.6551
264.2408
310.8159
403.0518
426.0163
0.3 0.3 0.3
213.1957
228.5934
297.1844
306.0022
441.6311
444.5443
0.3 0.3 0.4
154.1166
236.8276
265.2997
310.7129
416.9838
434.1182
0.3 0.3 -0.5
116.2176
192.7831
291.7263
319.0599
378.984
410.9497
P	=	1499.81	V	=	104.5013	E	=	-655.3241012
0.0 0.0 0.0
-0.0
0.0
0.0
327.9596
327.9596
571.4603
0.0 0.0 0.1
-134.2642
-134.2642
82.3899
278.3939
278.3939
522.8163
0.0 0.0 0.2
-68.566
-68.566
235.7906
235.7906
280.3127
465.8753
0.0 0.0 0.3
220.3714
220.3714
238.0203
238.0203
425.1858
443.9027
0.0 0.0 0.4
103.8774
103.8774
239.5149
239.5149
333.1318
460.7905
0.0 0.0 -0.5
-146.2391
-146.2391
135.3453
257.4991
257.4991
501.0254
0.0 0.1 0.0
-58.016
46.251
115.1626
331.8987
334.7583
552.5992
0.0 0.1 0.1
-104.7987
-103.0941
142.192
291.3138
299.3572
512.5815
0.0 0.1 0.2
65.2986
82.2843
252.9326
258.803
286.0803
462.9563
0.0 0.1 0.3
223.7223
228.3271
240.5931
245.1551
415.4396
434.4626
0.0 0.1 0.4
134.6374
139.1265
253.2677
255.4525
331.4728
456.4296
0.0 0.1 -0.5
-110.9222
-103.2797
173.8116
274.0915
283.5341
494.4908
0.0 0.2 0.0
-68.7005
103.077
226.8
343.6735
359.3936
505.7735
0.0 0.2 0.1
-71.889
87.8049
265.73
319.3901
344.7085
488.7139
0.0 0.2 0.2
132.9251
158.776
288.5423
300.7619
336.0183
462.356
0.0 0.2 0.3
225.2298
243.9262
249.9551
264.861
410.5406
426.9434
0.0 0.2 0.4
165.6718
189.3739
283.5893
285.4126
358.3743
454.6186
0.0 0.2 -0.5
-40.0539
95.6258
284.097
308.4047
334.7336
480.8157
0.0 0.3 0.0
108.4943
164.753
328.3374
363.2023
404.1198
454.9914
0.0 0.3 0.1
101.3651
166.5834
345.2484
361.1233
383.7048
471.3232
0.0 0.3 0.2
152.2247
213.5101
318.2425
325.6221
410.0704
477.2983
0.0 0.3 0.3
228.4934
250.7718
279.1386
291.9484
443.3027
452.9909
0.0 0.3 0.4
173.7552
234.0288
305.5614
312.1023
419.6401
472.8822
0.0 0.3 -0.5
108.9633
173.8403
336.6687
363.4787
383.4962
476.1205
0.0 0.4 0.0
216.8352
222.1303
387.7181
410.7794
421.2784
455.6269
0.0 0.4 0.1
196.5785
202.8032
361.1904
383.1248
428.8146
479.0802
0.0 0.4 0.2
196.776
238.3624
331.9124
334.7279
463.0376
500.868
0.0 0.4 0.3
261.2803
280.4891
307.5249
318.5866
495.5653
500.8909
0.0 0.4 0.4
211.9517
260.3655
320.7391
329.2942
473.7546
503.6654
0.0 0.4 -0.5
188.6533
203.7368
349.6862
369.1186
437.3097
486.7442
0.0 -0.5 0.0
248.3116
301.0646
404.2955
408.1329
463.3137
492.6536
0.0 -0.5 0.1
215.0409
260.1009
368.3725
374.9331
458.1699
493.3037
0.0 -0.5 0.2
238.3352
244.2957
333.8377
339.013
487.7479
519.4403
0.0 -0.5 0.3
301.5192
316.1789
326.8403
336.7612
535.6195
540.1366
0.0 -0.5 0.4
253.303
271.5299
334.5387
335.9107
503.7519
529.1437
0.0 -0.5 -0.5
208.9881
243.5663
351.9925
361.3319
460.8614
497.7916
0.1 0.1 0.0
-71.9633
68.231
162.0056
335.9745
342.2353
535.3807
0.1 0.1 0.1
-94.1343
-60.1268
193.2351
302.8896
316.5192
503.4554
0.1 0.1 0.2
111.0507
114.3107
267.7804
276.0647
299.4953
461.4181
0.1 0.1 0.3
225.0156
235.4031
242.7584
252.2869
410.0611
428.7045
0.1 0.1 0.4
154.8664
158.1853
265.4603
267.708
336.3209
454.0239
0.1 0.1 -0.5
-80.0955
-62.0048
216.0495
288.5936
303.7405
488.8997
0.1 0.2 0.0
-62.3881
117.2253
247.1308
350.8885
365.5562
492.1134
0.1 0.2 0.1
-62.2281
125.5417
282.8782
336.412
350.7747
481.9813
0.1 0.2 0.2
127.8458
185.0533
302.7102
305.371
351.7204
462.7058
0.1 0.2 0.3
219.3237
237.0368
262.1129
274.0169
413.194
428.1284
0.1 0.2 0.4
159.2666
207.5278
288.2613
296.9504
369.3775
455.2416
0.1 0.2 -0.5
-26.6073
136.7712
297.6371
330.8492
340.5644
477.0224
0.1 0.3 0.0
111.6043
175.3571
318.9711
382.899
405.5678
443.3266
0.1 0.3 0.1
104.8394
194.8641
340.0956
372.5405
392.245
465.6802
0.1 0.3 0.2
144.0129
238.0187
319.6889
337.3125
416.1469
475.2624
0.1 0.3 0.3
216.6259
237.7181
293.0527
303.2489
445.6423
454.1936
0.1 0.3 0.4
163.3994
249.917
302.8983
328.2986
424.5531
471.6523
0.1 0.3 -0.5
109.6897
206.0816
342.2831
362.5702
396.158
471.792
0.1 0.4 0.0
214.072
224.6386
366.0221
407.5127
424.3459
453.8752
0.1 0.4 0.1
188.7581
233.427
360.9414
379.7746
433.7649
472.4522
0.1 0.4 0.2
184.8831
266.4057
322.3766
358.0715
461.7431
494.452
0.1 0.4 0.3
241.2484
258.4799
324.1517
332.9256
490.9167
495.4814
0.1 0.4 0.4
197.4109
275.8402
313.9173
351.2968
471.4641
497.3204
0.1 0.4 -0.5
180.7909
240.2362
350.7315
373.7763
439.5535
480.1021
0.2 0.2 0.0
73.9906
154.6541
301.9042
365.8649
392.0185
460.9174
0.2 0.2 0.1
71.2281
168.3318
329.5265
359.2718
376.4302
470.5655
0.2 0.2 0.2
138.8082
217.0532
315.0828
325.6472
395.8552
471.0617
0.2 0.2 0.3
218.8847
239.7808
279.3313
290.7595
432.7375
443.5016
0.2 0.2 0.4
162.5617
233.9552
298.866
315.3177
406.1609
465.6642
0.2 0.2 -0.5
84.4174
178.9717
332.1324
356.5814
373.5542
473.3598
0.2 0.3 0.0
147.3837
203.123
326.136
411.9352
418.8399
419.0188
0.2 0.3 0.1
138.0524
231.7741
349.8763
373.3719
419.7655
459.0625
0.2 0.3 0.2
152.8349
265.4382
324.318
355.4814
436.9572
477.5027
0.2 0.3 0.3
211.4896
231.874
313.5828
322.0271
460.4978
466.4563
0.2 0.3 0.4
165.9103
266.1608
312.4701
347.3865
443.8858
476.679
0.2 0.3 -0.5
137.6757
244.066
355.5434
361.7743
422.9443
467.7008
0.2 0.4 0.0
210.676
249.8032
345.0038
378.3473
431.2062
458.3057
0.2 0.4 0.1
195.3127
277.3824
357.7834
372.3791
448.9781
459.1839
0.2 0.4 0.2
185.5501
285.5653
338.4804
383.5323
464.2557
481.3222
0.2 0.4 0.3
218.6633
234.4265
348.3661
354.9683
485.2377
487.8843
0.2 0.4 0.4
190.2765
273.6679
339.6672
376.6459
471.1605
485.5928
0.2 0.4 -0.5
189.688
287.1081
349.2225
381.0416
452.9036
464.6233
0.3 0.3 0.0
221.3344
230.1836
366.9745
402.2691
428.9998
458.0608
0.3 0.3 0.1
194.878
240.7439
360.8277
379.8254
437.3664
472.8219
0.3 0.3 0.2
188.0643
271.8727
322.2099
362.3422
464.5696
495.0647
0.3 0.3 0.3
241.5728
258.1578
329.2473
337.7464
494.1123
498.3483
0.3 0.3 0.4
199.657
278.6677
315.9646
355.8435
474.5031
498.5945
0.3 0.3 -0.5
186.2939
247.7199
349.7856
375.7926
442.672
480.051
P	=	2000.08	V	=	99.1732	E	=	-655.26104049
0.0 0.0 0.0
-0.0
0.0
0.0
330.8723
330.8723
618.521
0.0 0.0 0.1
-130.8538
-130.8538
94.7548
291.2778
291.2778
569.7209
0.0 0.0 0.2
-54.8538
-54.8538
259.4292
259.4292
302.5866
509.9657
0.0 0.0 0.3
230.789
230.789
251.0555
251.0555
458.3812
479.6722
0.0 0.0 0.4
112.2237
112.2237
261.236
261.236
357.8434
503.0457
0.0 0.0 -0.5
-142.0266
-142.0266
149.1819
275.572
275.572
547.9594
0.0 0.1 0.0
-50.9234
53.8092
133.701
339.3104
346.1914
599.5335
0.0 0.1 0.1
-102.218
-100.8259
158.0907
304.2491
315.2111
559.3208
0.0 0.1 0.2
72.0593
92.4236
272.7586
280.5429
308.97
507.2542
0.0 0.1 0.3
238.6723
240.1464
257.5991
259.1408
449.4585
471.0754
0.0 0.1 0.4
140.6143
148.3818
272.459
276.9145
356.8644
499.1735
0.0 0.1 -0.5
-110.6287
-99.6405
189.9208
290.0625
301.8818
541.2199
0.0 0.2 0.0
-47.4143
115.9646
260.4207
361.2342
388.2239
552.3626
0.0 0.2 0.1
-59.7662
83.696
287.9058
333.7005
367.4852
534.3757
0.0 0.2 0.2
142.4453
159.3514
302.8654
322.0342
361.3219
505.4471
0.0 0.2 0.3
248.5222
265.7251
268.5774
281.8333
447.7507
466.0389
0.0 0.2 0.4
178.6009
195.0644
299.3234
308.3782
387.1378
497.0644
0.0 0.2 -0.5
-21.9252
86.6772
304.3194
321.9366
355.8679
525.9329
0.0 0.3 0.0
127.0127
180.7866
371.2158
390.2607
446.0052
500.4103
0.0 0.3 0.1
120.1311
168.247
363.7036
392.677
414.383
514.3414
0.0 0.3 0.2
169.4222
218.7729
332.5548
349.7944
442.1283
517.8938
0.0 0.3 0.3
255.7339
278.5467
300.4892
313.6572
485.7341
495.9276
0.0 0.3 0.4
193.3928
244.8845
328.7751
330.9936
455.1116
514.2571
0.0 0.3 -0.5
125.7514
171.9579
352.1594
391.6911
411.5876
517.7118
0.0 0.4 0.0
234.424
237.3075
420.1393
456.2228
463.1473
503.328
0.0 0.4 0.1
213.3552
215.696
385.8415
418.0887
468.4371
522.7753
0.0 0.4 0.2
219.536
254.0832
352.1174
360.6117
503.8143
543.6606
0.0 0.4 0.3
286.7735
305.8872
334.5003
345.4324
542.0557
547.2988
0.0 0.4 0.4
235.3762
280.1105
346.2631
351.416
516.4478
547.4647
0.0 0.4 -0.5
209.0866
212.9461
371.5597
400.8559
475.6821
529.327
0.0 -0.5 0.0
266.6202
318.5956
440.6006
442.2833
507.1531
542.6885
0.0 -0.5 0.1
233.8707
280.3863
398.3256
409.0081
502.2284
542.25
0.0 -0.5 0.2
260.8157
270.3429
361.0019
367.1987
534.0255
567.8256
0.0 -0.5 0.3
324.1983
339.339
357.7246
367.3025
583.9131
588.5871
0.0 -0.5 0.4
275.3647
299.2926
361.054
363.9013
550.5176
577.4745
0.0 -0.5 -0.5
229.2169
265.164
380.5232
394.2023
505.2721
546.3098
0.1 0.1 0.0
-61.2676
79.1566
186.9137
347.338
360.6724
582.2115
0.1 0.1 0.1
-89.3519
-61.893
211.1166
316.1802
334.9221
549.9251
0.1 0.1 0.2
113.7315
121.7229
285.0981
296.9372
323.0817
505.5502
0.1 0.1 0.3
243.2778
248.8729
262.6782
267.5004
445.0473
466.1429
0.1 0.1 0.4
162.9366
165.6653
283.122
289.2545
362.6992
496.8911
0.1 0.1 -0.5
-76.8683
-67.0075
233.3446
303.2954
322.7443
535.2363
0.1 0.2 0.0
-31.7634
135.7039
279.2107
372.8421
398.2698
538.7446
0.1 0.2 0.1
-46.0675
126.0154
303.6286
353.6927
375.0503
527.1948
0.1 0.2 0.2
137.7893
186.8663
317.5187
325.7646
377.906
505.0353
0.1 0.2 0.3
242.7757
259.397
282.8406
293.6583
451.5059
467.9716
0.1 0.2 0.4
172.8726
214.5444
310.5298
313.6333
399.3541
497.2234
0.1 0.2 -0.5
21.9235
132.5367
315.424
347.8197
362.2749
521.4059
0.1 0.3 0.0
130.7942
197.4776
351.3127
420.1006
448.4564
489.2606
0.1 0.3 0.1
122.9238
201.0274
359.7899
402.9283
422.335
508.4722
0.1 0.3 0.2
162.064
245.0403
338.7481
355.7258
448.7077
515.1608
0.1 0.3 0.3
243.193
263.1576
318.0821
327.9905
488.672
497.4985
0.1 0.3 0.4
184.1785
262.2262
325.1878
347.7078
460.7018
512.5156
0.1 0.3 -0.5
125.9395
208.2934
358.4255
389.135
424.336
512.8534
0.1 0.4 0.0
230.6932
246.8736
398.5073
450.7214
468.6317
501.5087
0.1 0.4 0.1
206.0075
247.7949
384.836
412.2982
472.7579
515.5851
0.1 0.4 0.2
207.6422
282.4347
341.8991
381.4563
501.8889
536.1012
0.1 0.4 0.3
266.8659
282.5476
353.5973
362.3616
537.406
541.7758
0.1 0.4 0.4
221.8393
294.8747
335.8203
376.1347
513.8183
540.2232
0.1 0.4 -0.5
198.8749
252.5528
372.3654
401.662
477.0774
521.7555
0.2 0.2 0.0
97.2742
173.8293
337.2409
396.3472
432.1612
507.0308
0.2 0.2 0.1
91.233
171.1194
349.4596
385.9047
404.655
514.1673
0.2 0.2 0.2
153.891
221.6481
331.4803
345.8843
426.037
511.6671
0.2 0.2 0.3
245.0995
265.4165
301.9739
313.0687
474.1787
485.6248
0.2 0.2 0.4
180.7143
244.0145
320.9615
334.002
440.0751
506.8169
0.2 0.2 -0.5
99.7946
177.7517
347.4101
382.3803
398.6548
515.4951
0.2 0.3 0.0
165.5893
230.5151
355.0874
455.4869
463.2445
465.0763
0.2 0.3 0.1
156.1387
242.6632
370.1836
403.7427
453.2569
501.2841
0.2 0.3 0.2
174.6571
274.7171
344.1945
373.8386
472.1771
516.7553
0.2 0.3 0.3
238.46
256.4806
341.9885
350.1898
505.1671
510.9839
0.2 0.3 0.4
190.3048
280.0368
334.524
368.5738
482.5111
517.2859
0.2 0.3 -0.5
155.4561
250.6292
373.908
386.6626
454.2363
507.8903
0.2 0.4 0.0
230.8457
280.3613
373.4896
423.5577
475.7149
506.389
0.2 0.4 0.1
213.528
293.9917
384.3438
397.3583
489.1368
500.0445
0.2 0.4 0.2
209.4484
294.958
359.8372
407.057
503.8223
521.1053
0.2 0.4 0.3
245.542
257.578
381.546
388.0685
531.8323
534.0471
0.2 0.4 0.4
216.9888
285.7787
364.708
402.9945
513.3566
527.0202
0.2 0.4 -0.5
207.9972
299.3587
371.5062
403.6973
490.0978
504.3526
0.3 0.3 0.0
238.4069
253.1336
399.3723
445.3095
473.3206
506.0374
0.3 0.3 0.1
212.1694
256.1698
385.2661
411.6884
476.8065
516.1922
0.3 0.3 0.2
211.0304
288.452
341.6337
386.2121
505.1998
536.9375
0.3 0.3 0.3
267.0973
281.9453
359.4201
367.9205
540.8162
544.8478
0.3 0.3 0.4
224.3271
297.6063
338.2232
381.3211
517.2498
541.7109
0.3 0.3 -0.5
204.4269
261.1294
371.7711
403.2543
480.7264
521.9324
P	=	2499.67	V	=	94.8773	E	=	-655.19557982
0.0 0.0 0.0
-0.0
0.0
0.0
271.2172
271.2172
658.5056
0.0 0.0 0.1
-119.3673
-119.3673
109.617
275.5345
275.5345
610.7921
0.0 0.0 0.2
-50.6086
-50.6086
292.7244
292.7244
325.6953
550.7537
0.0 0.0 0.3
236.5034
236.5034
264.3455
264.3455
490.5883
514.0547
0.0 0.0 0.4
108.2832
108.2832
293.5328
293.5328
382.9842
542.6574
0.0 0.0 -0.5
-130.4355
-130.4355
165.4814
279.8071
279.8071
589.6415
0.0 0.1 0.0
-70.7975
41.5897
142.595
296.4689
304.3623
637.2745
0.0 0.1 0.1
-96.2642
-87.1765
185.8441
297.1314
309.7097
600.1926
0.0 0.1 0.2
82.2238
107.2439
302.8309
312.1242
333.3515
546.6801
0.0 0.1 0.3
244.5612
246.5342
269.8156
271.2541
475.3158
499.166
0.0 0.1 0.4
140.9171
154.3875
300.7484
307.1559
380.0666
535.8625
0.0 0.1 -0.5
-92.8435
-85.4883
217.7646
298.7177
311.9976
583.126
0.0 0.2 0.0
-91.7031
103.1719
276.8069
351.1784
381.7368
584.823
0.0 0.2 0.1
-39.2458
101.2831
319.3377
343.243
381.4871
574.8323
0.0 0.2 0.2
163.9289
172.6041
327.2271
351.4854
389.486
542.707
0.0 0.2 0.3
257.9116
269.1582
281.2849
288.6134
463.4686
483.6576
0.0 0.2 0.4
192.8385
201.8654
320.3266
335.2192
409.5935
528.8582
0.0 0.2 -0.5
66.0531
111.6744
338.2094
339.3563
378.0025
568.3693
0.0 0.3 0.0
106.2387
176.2802
394.2417
405.2718
468.5458
528.4037
0.0 0.3 0.1
138.4482
182.1957
385.8856
424.7249
445.9793
554.7052
0.0 0.3 0.2
189.5237
235.9617
354.1387
379.6018
476.0938
555.5628
0.0 0.3 0.3
260.1112
286.538
307.1583
321.3249
505.6675
516.3387
0.0 0.3 0.4
205.3136
257.537
346.3659
356.0989
484.147
546.5245
0.0 0.3 -0.5
152.8834
191.2448
376.5428
422.9819
449.4956
560.496
0.0 0.4 0.0
241.2993
243.8607
445.3661
486.5223
490.995
540.3942
0.0 0.4 0.1
230.787
233.2196
413.0541
451.9735
505.7378
565.278
0.0 0.4 0.2
237.1786
274.5891
374.7592
391.3333
542.3093
584.9063
0.0 0.4 0.3
296.462
318.3649
347.8013
358.9193
573.64
579.182
0.0 0.4 0.4
248.6456
297.7257
370.9192
372.4989
552.476
585.685
0.0 0.4 -0.5
229.9359
233.8923
398.9637
435.9883
515.0781
573.1948
0.0 -0.5 0.0
282.2714
337.1358
468.423
471.6633
544.143
583.1987
0.0 -0.5 0.1
255.1588
300.0536
425.6848
441.1704
542.1442
585.8291
0.0 -0.5 0.2
281.2859
293.0848
386.0056
396.5069
575.547
612.2016
0.0 -0.5 0.3
344.6044
360.9388
376.9018
386.7422
624.7225
629.821
0.0 -0.5 0.4
295.1087
320.2626
387.0172
388.2606
591.5136
620.9612
0.0 -0.5 -0.5
252.5039
285.6541
408.1936
426.54
546.1439
590.6825
0.1 0.1 0.0
-89.2423
67.6726
197.9881
318.2642
332.7729
617.942
0.1 0.1 0.1
-84.5175
-26.9811
240.5275
316.2663
337.115
590.6348
0.1 0.1 0.2
124.9124
139.6698
312.7987
327.3496
348.6466
543.9727
0.1 0.1 0.3
252.1166
253.0395
275.9156
276.8205
465.8946
489.262
0.1 0.1 0.4
166.3385
176.2762
308.4458
317.8911
384.6962
531.3396
0.1 0.1 -0.5
-53.6482
-17.1543
264.6549
315.8564
337.3819
577.3573
0.1 0.2 0.0
-88.4897
134.4734
287.8237
374.6728
397.7361
569.5808
0.1 0.2 0.1
-7.7243
144.8544
328.3074
374.0466
392.0146
567.5725
0.1 0.2 0.2
159.6308
201.3493
341.7334
354.4637
407.6605
542.0883
0.1 0.2 0.3
249.0659
266.4706
290.6269
301.9042
466.1442
484.1716
0.1 0.2 0.4
186.2947
223.4034
333.5901
336.6927
422.9057
528.3003
0.1 0.2 -0.5
74.4945
155.3056
341.1079
376.9386
386.1279
564.0689
0.1 0.3 0.0
108.568
203.0493
363.1781
441.6707
471.7934
515.3791
0.1 0.3 0.1
138.3878
219.9985
384.1932
432.3958
455.5496
548.6243
0.1 0.3 0.2
180.6565
263.5601
365.0636
382.9237
483.813
552.9151
0.1 0.3 0.3
243.3634
267.2345
327.3099
338.3696
508.4961
517.5032
0.1 0.3 0.4
193.6396
276.8785
347.6429
369.0725
490.7734
544.5782
0.1 0.3 -0.5
150.8777
230.2698
385.147
421.5643
461.5176
555.7599
0.1 0.4 0.0
233.7315
255.9066
419.2113
475.3639
496.2134
535.1869
0.1 0.4 0.1
220.7684
269.0206
413.6047
446.0215
507.9688
556.9653
0.1 0.4 0.2
224.6198
304.59
370.9066
410.063
540.9029
577.2042
0.1 0.4 0.3
271.8163
290.7175
368.808
378.3242
567.697
572.1897
0.1 0.4 0.4
233.0173
314.7313
359.4972
400.5984
550.0262
577.8571
0.1 0.4 -0.5
218.4695
276.2727
403.8434
436.2679
515.5724
565.1902
0.2 0.2 0.0
57.1884
173.5488
350.1659
412.5889
449.2973
534.92
0.2 0.2 0.1
109.0368
188.0516
372.2186
414.7701
433.464
554.3722
0.2 0.2 0.2
174.2491
238.6074
355.117
374.4175
459.2034
548.9052
0.2 0.2 0.3
247.8083
271.344
309.3493
321.6505
491.55
503.5904
0.2 0.2 0.4
192.0245
256.3532
342.486
355.9282
467.6988
538.1038
0.2 0.2 -0.5
128.5826
198.7734
372.049
412.5622
434.6941
558.3103
0.2 0.3 0.0
152.3411
245.0692
362.9154
480.168
488.239
489.9968
0.2 0.3 0.1
169.9861
265.2721
395.8269
436.3816
486.9782
541.0804
0.2 0.3 0.2
191.0175
296.1545
374.52
400.6038
509.6762
555.2361
0.2 0.3 0.3
235.646
258.3158
354.4961
363.7761
527.9292
533.4643
0.2 0.3 0.4
197.558
298.6114
357.6278
391.5381
515.5743
550.3991
0.2 0.3 -0.5
177.1634
274.8258
403.3431
422.0475
491.7197
550.7034
0.2 0.4 0.0
229.2538
296.7517
378.1001
441.9912
504.1089
531.2602
0.2 0.4 0.1
228.104
319.4746
415.9723
426.9947
524.3083
537.5468
0.2 0.4 0.2
226.6389
325.1237
389.989
438.4681
544.3394
561.7571
0.2 0.4 0.3
244.4708
260.7982
399.9444
407.4294
560.9492
562.7691
0.2 0.4 0.4
226.4097
310.8647
389.4721
431.0693
550.778
563.6644
0.2 0.4 -0.5
228.5967
327.4949
409.566
435.7141
528.2821
546.1573
0.3 0.3 0.0
242.3549
262.7283
419.5251
469.3919
501.1541
539.3005
0.3 0.3 0.1
226.9373
277.9756
414.6869
445.0768
511.9078
557.4181
0.3 0.3 0.2
228.1866
311.376
371.2362
415.2076
544.601
578.3865
0.3 0.3 0.3
272.2666
290.2736
375.5259
384.8001
571.8705
576.0307
0.3 0.3 0.4
235.8052
318.4462
362.0626
406.4791
553.993
579.851
0.3 0.3 -0.5
223.9392
285.3415
404.4109
437.4393
519.1824
565.3076
P	=	3000.81	V	=	91.2794	E	=	-655.12848196
0.0 0.0 0.0
-0.0
0.0
0.0
309.5651
309.5651
699.9297
0.0 0.0 0.1
-122.1925
-122.1925
112.626
300.5659
300.5659
648.2974
0.0 0.0 0.2
-22.0252
-22.0252
302.1983
302.1983
343.2504
583.1374
0.0 0.0 0.3
248.5431
248.5431
274.9604
274.9604
519.0409
543.7736
0.0 0.0 0.4
122.6271
122.6271
302.1736
302.1736
403.7682
574.453
0.0 0.0 -0.5
-132.243
-132.243
171.5466
298.9732
298.9732
625.6044
0.0 0.1 0.0
-65.2486
49.683
155.2566
330.1253
339.8423
678.0135
0.0 0.1 0.1
-111.3145
-87.9466
203.0468
317.5581
332.8389
636.5845
0.0 0.1 0.2
98.7418
116.8644
309.6933
322.529
354.0179
578.3264
0.0 0.1 0.3
258.1801
261.7683
281.3871
285.0346
504.8959
529.6777
0.0 0.1 0.4
155.8054
167.4879
307.7833
317.5634
403.036
567.3447
0.0 0.1 -0.5
-100.5369
-92.51
234.4481
313.5932
330.0165
617.8703
0.0 0.2 0.0
-72.8663
116.3094
300.0564
376.7729
413.3531
623.3937
0.0 0.2 0.1
-69.2466
108.6724
343.6448
356.0905
402.9724
608.7554
0.0 0.2 0.2
166.7418
187.2308
329.951
365.1441
416.2222
573.4605
0.0 0.2 0.3
278.8876
285.8652
301.4545
302.3592
496.1007
516.5026
0.0 0.2 0.4
203.8193
218.6167
325.0073
350.1676
437.9234
560.3426
0.0 0.2 -0.5
15.259
119.0035
347.2335
362.4472
395.7431
600.6959
0.0 0.3 0.0
134.4304
192.1463
424.5992
426.079
499.4879
563.2889
0.0 0.3 0.1
135.6524
193.0316
395.8766
449.8242
471.9075
587.1351
0.0 0.3 0.2
191.5826
251.7368
357.0765
397.1604
506.2469
587.7763
0.0 0.3 0.3
284.2647
310.9136
325.8158
337.1577
541.2714
552.1626
0.0 0.3 0.4
215.4329
275.5271
352.0284
375.6375
515.8136
580.068
0.0 0.3 -0.5
144.5867
201.5997
382.4847
442.5884
477.6705
592.0337
0.0 0.4 0.0
258.0983
264.7775
465.7342
520.6343
521.6807
573.1254
0.0 0.4 0.1
240.5482
244.1843
426.1876
474.6368
537.957
599.1818
0.0 0.4 0.2
243.382
290.5948
383.3975
411.6718
574.5107
620.7713
0.0 0.4 0.3
319.265
342.2229
366.6077
376.1269
611.0596
617.2619
0.0 0.4 0.4
259.9771
315.2326
381.5104
394.2786
585.9354
622.6468
0.0 0.4 -0.5
233.2602
246.7268
409.4468
456.9617
546.4513
607.1256
0.0 -0.5 0.0
298.9837
355.8242
490.373
499.9397
579.6095
618.0917
0.0 -0.5 0.1
269.6351
312.3251
443.9226
464.3789
576.32
621.8322
0.0 -0.5 0.2
293.1104
308.3426
401.394
417.4029
610.2396
649.9513
0.0 -0.5 0.3
365.7074
382.841
395.0865
404.6686
663.1451
668.7319
0.0 -0.5 0.4
309.5993
336.3646
402.9813
409.715
627.0669
659.3101
0.0 -0.5 -0.5
266.4241
296.0542
425.1169
448.4912
579.8781
626.9196
0.1 0.1 0.0
-80.2216
78.1898
215.3469
348.6417
366.2272
657.9726
0.1 0.1 0.1
-103.5514
-17.1914
261.3716
333.5045
359.0885
626.0603
0.1 0.1 0.2
139.1679
145.9054
317.9864
338.6884
372.008
575.1189
0.1 0.1 0.3
267.601
269.8793
289.1458
292.6026
496.5753
520.5722
0.1 0.1 0.4
181.8099
188.6077
314.5289
329.8103
409.822
562.6776
0.1 0.1 -0.5
-81.297
16.1526
285.4859
327.7713
354.7895
611.0989
0.1 0.2 0.0
-63.2392
149.314
311.9926
401.19
427.2615
607.3654
0.1 0.2 0.1
-56.1153
152.8541
349.2428
392.4199
412.1689
600.8678
0.1 0.2 0.2
161.1418
215.4462
347.1468
367.8782
434.8097
572.8143
0.1 0.2 0.3
269.4905
284.9453
311.283
318.7759
499.2696
517.4752
0.1 0.2 0.4
196.44
240.2069
341.2299
351.4787
451.8388
559.9392
0.1 0.2 -0.5
37.1345
162.677
355.7687
396.64
403.0616
595.8655
0.1 0.3 0.0
137.9613
221.2036
389.4155
468.6724
500.9969
549.3627
0.1 0.3 0.1
136.1946
232.18
399.8187
453.3444
482.6152
580.4411
0.1 0.3 0.2
181.4018
279.2142
375.2111
398.2374
513.8474
585.0587
0.1 0.3 0.3
265.6036
289.1712
349.9603
358.8425
543.6502
552.9749
0.1 0.3 0.4
202.2599
294.9454
363.3264
383.6728
522.2101
578.0481
0.1 0.3 -0.5
142.7995
241.3928
396.0924
440.1786
489.2264
586.8626
0.1 0.4 0.0
255.4663
275.5529
444.5903
505.0206
526.0634
567.4544
0.1 0.4 0.1
229.1896
284.2274
430.3169
468.7991
539.4586
590.0827
0.1 0.4 0.2
230.0459
321.5524
386.8798
428.5092
573.0408
612.6089
0.1 0.4 0.3
292.0599
311.6997
391.9136
400.7325
604.3019
609.4541
0.1 0.4 0.4
242.8291
333.1136
378.3943
419.7317
583.1857
614.283
0.1 0.4 -0.5
222.8764
290.4863
418.5412
457.1259
546.8467
598.4919
0.2 0.2 0.0
96.356
190.1613
376.4704
437.946
478.9591
570.4423
0.2 0.2 0.1
101.5171
198.5771
386.7258
437.4556
457.3079
586.6394
0.2 0.2 0.2
175.1937
253.7491
360.8395
390.1907
488.5403
580.405
0.2 0.2 0.3
270.2748
292.8693
330.6545
340.0567
526.3088
538.535
0.2 0.2 0.4
201.4042
274.1151
352.9618
371.6061
498.5904
570.8652
0.2 0.2 -0.5
115.755
208.4131
381.0221
431.4048
460.6939
589.5154
0.2 0.3 0.0
178.6095
265.708
390.3367
508.4531
518.763
519.9008
0.2 0.3 0.1
172.6476
280.061
415.447
456.5953
516.0162
572.0559
0.2 0.3 0.2
192.121
312.6637
392.4883
415.4971
540.4776
588.0563
0.2 0.3 0.3
256.8841
280.0577
379.583
387.5527
563.0045
569.0151
0.2 0.3 0.4
205.254
316.9382
378.3871
408.4564
547.4415
584.4909
0.2 0.3 -0.5
174.1587
288.42
419.3488
440.7231
520.867
581.5694
0.2 0.4 0.0
251.8968
320.2574
408.2081
469.215
530.3895
564.2774
0.2 0.4 0.1
239.0024
338.7547
438.2472
450.9336
555.575
569.3022
0.2 0.4 0.2
232.8149
343.5786
412.117
461.0648
576.9823
596.3073
0.2 0.4 0.3
263.0321
280.7781
427.2121
434.602
596.1391
598.5458
0.2 0.4 0.4
235.6588
330.325
413.2173
455.106
583.8436
599.0855
0.2 0.4 -0.5
235.7439
345.6451
430.2178
458.6043
560.286
578.1034
0.3 0.3 0.0
263.8962
282.9262
445.3534
498.4781
530.8774
571.8492
0.3 0.3 0.1
236.2558
293.8177
432.3214
468.0656
543.5155
590.6815
0.3 0.3 0.2
234.1447
328.5845
388.3692
434.3372
576.9452
613.9992
0.3 0.3 0.3
292.0269
310.8793
399.102
407.8831
608.4476
613.2675
0.3 0.3 0.4
245.7268
336.8669
381.7641
426.4848
587.2871
616.4079
0.3 0.3 -0.5
229.4273
300.2164
420.3623
458.5175
550.6736
598.8143
P	=	5000.62	V	=	81.0081	E	=	-654.85488826
0.0 0.0 0.0
-0.0
-0.0
0.0
468.8476
468.8476
831.3094
0.0 0.0 0.1
76.9815
76.9815
228.6307
435.3784
435.3784
800.3794
0.0 0.0 0.2
195.1068
195.1068
372.9711
372.9711
444.904
732.4178
0.0 0.0 0.3
295.9607
295.9607
315.1798
315.1798
609.3771
641.8042
0.0 0.0 0.4
226.3033
226.3033
357.7472
357.7472
495.6609
711.2658
0.0 0.0 -0.5
106.4429
106.4429
289.2759
418.7893
418.7893
784.1583
0.0 0.1 0.0
-32.2689
78.3844
190.2914
466.6482
477.5345
811.9657
0.0 0.1 0.1
133.3487
137.0567
289.7234
443.6427
457.6635
787.3562
0.0 0.1 0.2
224.5413
237.9282
389.8748
402.9562
461.4044
725.8185
0.0 0.1 0.3
306.3342
312.6219
325.4347
331.8743
605.3285
635.965
0.0 0.1 0.4
248.1267
259.2462
373.3461
384.494
504.4198
704.8215
0.0 0.1 -0.5
157.3042
168.3283
335.1228
431.1061
445.8974
773.6557
0.0 0.2 0.0
71.3481
156.7166
364.6266
469.3335
512.0184
760.8565
0.0 0.2 0.1
179.0864
217.672
436.6088
466.2132
513.8317
754.7151
0.0 0.2 0.2
279.6419
285.2525
428.4693
464.4932
534.3299
716.6001
0.0 0.2 0.3
336.2623
340.669
354.5081
363.7819
615.7631
638.7528
0.0 0.2 0.4
295.613
297.887
410.1067
439.2165
555.9614
698.5079
0.0 0.2 -0.5
213.0988
239.6847
461.0828
464.8753
508.9983
748.8855
0.0 0.3 0.0
186.925
232.9381
491.2145
505.1519
582.6607
695.1672
0.0 0.3 0.1
246.4245
286.5803
495.9768
555.641
586.7024
722.6399
0.0 0.3 0.2
307.665
342.7059
466.7561
510.0014
634.6041
728.4498
0.0 0.3 0.3
360.8886
379.6938
388.3231
395.8443
667.4712
680.0329
0.0 0.3 0.4
317.4612
351.2217
449.1791
479.5669
643.2551
718.284
0.0 0.3 -0.5
268.0313
306.1004
493.9374
558.7332
597.7328
730.6265
0.0 0.4 0.0
300.2315
302.2235
528.2455
602.6653
632.5894
671.0309
0.0 0.4 0.1
331.1915
334.1157
522.9441
589.8764
659.0287
728.9808
0.0 0.4 0.2
354.3458
383.3073
491.4953
526.4702
711.359
764.2669
0.0 0.4 0.3
391.4459
415.9485
424.2725
437.5954
736.3656
743.4885
0.0 0.4 0.4
357.9905
393.9328
477.7796
498.5182
719.2889
761.9226
0.0 0.4 -0.5
340.8123
348.6313
517.8929
578.8964
675.9197
745.2567
0.0 -0.5 0.0
345.5619
391.7682
559.7026
583.5379
662.076
733.1946
0.0 -0.5 0.1
360.6333
400.6437
539.6327
576.3683
696.5874
761.5605
0.0 -0.5 0.2
399.6568
405.2819
501.9575
529.3292
751.4805
797.3003
0.0 -0.5 0.3
425.0345
444.1781
455.5478
466.5294
786.661
792.6429
0.0 -0.5 0.4
400.2745
419.6641
492.5222
507.9252
763.1021
799.6789
0.0 -0.5 -0.5
370.141
401.9787
529.7063
569.0404
712.0932
774.0756
0.1 0.1 0.0
-20.6135
111.6006
264.68
466.5775
487.5951
793.7928
0.1 0.1 0.1
153.3922
170.7846
347.1938
452.5943
477.3649
775.3788
0.1 0.1 0.2
249.6774
258.7507
405.7476
426.7627
483.8926
720.9681
0.1 0.1 0.3
316.6703
322.6927
337.7207
345.0217
605.3892
633.7189
0.1 0.1 0.4
267.9925
276.8392
388.3693
405.6768
518.7091
700.5697
0.1 0.1 -0.5
188.2271
194.0564
383.2955
443.5481
468.7692
764.2368
0.1 0.2 0.0
93.4012
180.9928
386.2284
485.8018
521.0493
745.3082
0.1 0.2 0.1
185.7497
248.3
446.5881
499.6224
522.4553
745.1302
0.1 0.2 0.2
274.737
312.0897
448.3083
471.5914
555.2718
714.923
0.1 0.2 0.3
329.7433
340.1376
375.5969
379.0721
621.8981
642.4116
0.1 0.2 0.4
288.8768
320.7882
430.8233
445.1677
572.3341
698.1323
0.1 0.2 -0.5
216.1856
271.2249
461.7708
509.0199
517.2629
741.8371
0.1 0.3 0.0
197.8313
256.4272
459.8649
554.8217
587.689
681.5909
0.1 0.3 0.1
248.043
318.7842
497.1636
564.5717
601.3462
714.9001
0.1 0.3 0.2
295.5899
372.6149
485.6073
511.064
642.8355
725.2734
0.1 0.3 0.3
337.9808
358.4954
419.2425
428.3478
669.8525
681.028
0.1 0.3 0.4
302.3135
375.9157
465.344
486.0281
649.6568
716.072
0.1 0.3 -0.5
265.8751
340.069
504.2002
558.4391
613.7103
724.4672
0.1 0.4 0.0
303.6342
323.7536
515.1705
616.9773
618.7567
673.378
0.1 0.4 0.1
323.1204
372.1862
530.378
583.6564
665.8321
721.0265
0.1 0.4 0.2
336.0039
416.8981
497.5131
540.8239
708.4232
754.72
0.1 0.4 0.3
360.9348
380.5431
463.8966
474.3585
728.8311
735.1296
0.1 0.4 0.4
336.6698
418.4096
479.2681
522.048
714.8431
752.4018
0.1 0.4 -0.5
329.9132
389.1846
528.9792
576.3707
679.4358
736.5047
0.2 0.2 0.0
162.0806
226.3132
449.1801
518.3378
563.2512
705.4622
0.2 0.2 0.1
226.0506
289.0651
485.3049
545.6418
570.2869
724.7833
0.2 0.2 0.2
290.3876
347.0603
469.0443
501.3493
614.799
720.9142
0.2 0.2 0.3
340.1866
357.9341
396.8799
405.3961
652.2741
666.4113
0.2 0.2 0.4
300.4287
353.2819
450.4815
473.2698
624.22
708.9507
0.2 0.2 -0.5
248.8132
310.7568
490.1664
546.9876
579.9329
729.697
0.2 0.3 0.0
240.4766
301.651
467.3338
598.7212
619.6589
648.2279
0.2 0.3 0.1
276.2082
363.1564
514.4896
572.4866
642.264
703.0498
0.2 0.3 0.2
302.5956
407.4268
506.7622
525.5228
671.9642
727.8643
0.2 0.3 0.3
331.4434
353.2185
455.0533
463.5461
688.44
696.2976
0.2 0.3 0.4
304.2699
403.0597
483.5491
510.015
676.0315
721.9866
0.2 0.3 -0.5
288.2619
383.491
526.8379
561.3669
652.2014
717.232
0.2 0.4 0.0
319.2539
378.6787
506.9948
585.6934
635.5045
684.9168
0.2 0.4 0.1
335.6767
427.2847
550.2132
565.1154
687.9496
703.2012
0.2 0.4 0.2
332.9321
442.3269
521.6462
570.7843
710.7415
734.9076
0.2 0.4 0.3
336.8092
355.2723
510.6098
518.8575
718.5401
722.2833
0.2 0.4 0.4
327.2815
423.7697
513.7817
558.3238
712.9825
733.9924
0.2 0.4 -0.5
339.6526
442.3171
548.5262
571.6309
697.8605
715.4251
0.3 0.3 0.0
313.6417
334.0158
518.6972
610.3909
623.8276
681.033
0.3 0.3 0.1
330.0117
382.2021
533.808
582.4625
670.612
722.7044
0.3 0.3 0.2
338.7494
424.4168
498.7461
546.0715
712.4859
756.0955
0.3 0.3 0.3
360.2488
379.4265
472.5914
482.926
732.5828
738.5091
0.3 0.3 0.4
338.4122
423.6135
481.9738
528.6398
718.8921
754.2804
0.3 0.3 -0.5
335.6384
398.8556
531.6411
576.7908
684.03
737.564

weight
   0.0000000   0.0000000   0.0000000   0.0020000   
   0.0000000   0.0000000   0.1000000   0.0040000   
   0.0000000   0.0000000   0.2000000   0.0040000   
   0.0000000   0.0000000   0.3000000   0.0040000   
   0.0000000   0.0000000   0.4000000   0.0040000   
   0.0000000   0.0000000  -0.5000000   0.0020000   
   0.0000000   0.1000000   0.0000000   0.0120000   
   0.0000000   0.1000000   0.1000000   0.0240000   
   0.0000000   0.1000000   0.2000000   0.0240000   
   0.0000000   0.1000000   0.3000000   0.0240000   
   0.0000000   0.1000000   0.4000000   0.0240000   
   0.0000000   0.1000000  -0.5000000   0.0120000   
   0.0000000   0.2000000   0.0000000   0.0120000   
   0.0000000   0.2000000   0.1000000   0.0240000   
   0.0000000   0.2000000   0.2000000   0.0240000   
   0.0000000   0.2000000   0.3000000   0.0240000   
   0.0000000   0.2000000   0.4000000   0.0240000   
   0.0000000   0.2000000  -0.5000000   0.0120000   
   0.0000000   0.3000000   0.0000000   0.0120000   
   0.0000000   0.3000000   0.1000000   0.0240000   
   0.0000000   0.3000000   0.2000000   0.0240000   
   0.0000000   0.3000000   0.3000000   0.0240000   
   0.0000000   0.3000000   0.4000000   0.0240000   
   0.0000000   0.3000000  -0.5000000   0.0120000   
   0.0000000   0.4000000   0.0000000   0.0120000   
   0.0000000   0.4000000   0.1000000   0.0240000   
   0.0000000   0.4000000   0.2000000   0.0240000   
   0.0000000   0.4000000   0.3000000   0.0240000   
   0.0000000   0.4000000   0.4000000   0.0240000   
   0.0000000   0.4000000  -0.5000000   0.0120000   
   0.0000000  -0.5000000   0.0000000   0.0060000   
   0.0000000  -0.5000000   0.1000000   0.0120000   
   0.0000000  -0.5000000   0.2000000   0.0120000   
   0.0000000  -0.5000000   0.3000000   0.0120000   
   0.0000000  -0.5000000   0.4000000   0.0120000   
   0.0000000  -0.5000000  -0.5000000   0.0060000   
   0.1000000   0.1000000   0.0000000   0.0120000   
   0.1000000   0.1000000   0.1000000   0.0240000   
   0.1000000   0.1000000   0.2000000   0.0240000   
   0.1000000   0.1000000   0.3000000   0.0240000   
   0.1000000   0.1000000   0.4000000   0.0240000   
   0.1000000   0.1000000  -0.5000000   0.0120000   
   0.1000000   0.2000000   0.0000000   0.0240000   
   0.1000000   0.2000000   0.1000000   0.0480000   
   0.1000000   0.2000000   0.2000000   0.0480000   
   0.1000000   0.2000000   0.3000000   0.0480000   
   0.1000000   0.2000000   0.4000000   0.0480000   
   0.1000000   0.2000000  -0.5000000   0.0240000   
   0.1000000   0.3000000   0.0000000   0.0240000   
   0.1000000   0.3000000   0.1000000   0.0480000   
   0.1000000   0.3000000   0.2000000   0.0480000   
   0.1000000   0.3000000   0.3000000   0.0480000   
   0.1000000   0.3000000   0.4000000   0.0480000   
   0.1000000   0.3000000  -0.5000000   0.0240000   
   0.1000000   0.4000000   0.0000000   0.0240000   
   0.1000000   0.4000000   0.1000000   0.0480000   
   0.1000000   0.4000000   0.2000000   0.0480000   
   0.1000000   0.4000000   0.3000000   0.0480000   
   0.1000000   0.4000000   0.4000000   0.0480000   
   0.1000000   0.4000000  -0.5000000   0.0240000   
   0.2000000   0.2000000   0.0000000   0.0120000   
   0.2000000   0.2000000   0.1000000   0.0240000   
   0.2000000   0.2000000   0.2000000   0.0240000   
   0.2000000   0.2000000   0.3000000   0.0240000   
   0.2000000   0.2000000   0.4000000   0.0240000   
   0.2000000   0.2000000  -0.5000000   0.0120000   
   0.2000000   0.3000000   0.0000000   0.0240000   
   0.2000000   0.3000000   0.1000000   0.0480000   
   0.2000000   0.3000000   0.2000000   0.0480000   
   0.2000000   0.3000000   0.3000000   0.0480000   
   0.2000000   0.3000000   0.4000000   0.0480000   
   0.2000000   0.3000000  -0.5000000   0.0240000   
   0.2000000   0.4000000   0.0000000   0.0120000   
   0.2000000   0.4000000   0.1000000   0.0240000   
   0.2000000   0.4000000   0.2000000   0.0240000   
   0.2000000   0.4000000   0.3000000   0.0240000   
   0.2000000   0.4000000   0.4000000   0.0240000   
   0.2000000   0.4000000  -0.5000000   0.0120000   
   0.3000000   0.3000000   0.0000000   0.0120000   
   0.3000000   0.3000000   0.1000000   0.0240000   
   0.3000000   0.3000000   0.2000000   0.0240000   
   0.3000000   0.3000000   0.3000000   0.0240000   
   0.3000000   0.3000000   0.4000000   0.0240000   
   0.3000000   0.3000000  -0.5000000   0.0120000   