Number of volumes (nv), q-vectors (nq), normal mode (np), formula units(nm)
10 84 6 1
P = 3.2500	V = 138.4189	E = -655.45539782000000	S_el = 0.00000448617000
0.0000000 0.0000000 0.0000000
0.0000
0.0000
0.0000
229.6677
229.6677
318.2800
0.0000000 0.0000000 0.1000000
40.0146
40.0146
101.5388
220.9533
220.9533
304.1129
0.0000000 0.0000000 0.2000000
93.7788
93.7788
195.0674
197.9443
196.9976
282.3923
0.0000000 0.0000000 0.3000000
147.6453
147.6453
162.1764
162.1764
253.7072
263.9721
0.0000000 0.0000000 0.4000000
111.8424
111.8424
188.0936
188.0936
217.6759
277.2700
0.0000000 0.0000000 -0.5000000
55.9478
55.9478
133.0086
214.9516
214.9516
296.4662
0.0000000 0.1000000 0.0000000
0.0000
59.9868
96.3903
235.8667
240.1763
308.2971
0.0000000 0.1000000 0.1000000
60.5566
74.2925
126.8506
227.7370
230.7668
296.4020
0.0000000 0.1000000 0.2000000
112.2268
114.8039
198.2478
206.3072
206.6558
278.8264
0.0000000 0.1000000 0.3000000
160.2945
161.4637
173.3440
174.3852
252.1280
261.9280
0.0000000 0.1000000 0.4000000
128.3564
130.1194
197.1394
197.6450
218.8633
274.4630
0.0000000 0.1000000 -0.5000000
77.5246
84.9079
148.0809
222.1902
224.3098
290.1578
0.0000000 0.2000000 0.0000000
35.6265
110.2487
175.9173
248.8740
261.7193
283.6932
0.0000000 0.2000000 0.1000000
64.3327
121.0645
190.8968
241.9528
245.7372
283.2306
0.0000000 0.2000000 0.2000000
118.6808
152.2097
214.8887
224.7302
228.5545
280.5554
0.0000000 0.2000000 0.3000000
168.7792
180.4074
189.6519
199.2687
263.6686
270.6784
0.0000000 0.2000000 0.4000000
135.8684
164.3523
204.2504
218.2044
241.3315
278.8727
0.0000000 0.2000000 -0.5000000
80.6982
129.1244
201.8378
235.9265
237.2848
282.5738
0.0000000 0.3000000 0.0000000
95.9775
143.6184
228.2268
257.5439
258.9623
277.4296
0.0000000 0.3000000 0.1000000
100.1871
152.6981
238.3872
243.8301
251.6456
286.1145
0.0000000 0.3000000 0.2000000
123.9382
179.3298
211.5499
240.3171
265.7559
294.0705
0.0000000 0.3000000 0.3000000
164.6427
178.1343
210.2819
219.3820
287.8081
291.7546
0.0000000 0.3000000 0.4000000
136.1777
189.7614
202.0643
234.0839
274.0607
294.8122
0.0000000 0.3000000 -0.5000000
104.9111
159.5369
232.8423
247.1335
249.1286
289.3241
0.0000000 0.4000000 0.0000000
154.5836
157.9164
241.8590
252.8975
261.6616
280.1947
0.0000000 0.4000000 0.1000000
150.1682
165.2364
234.4145
257.7010
264.8150
289.6128
0.0000000 0.4000000 0.2000000
148.8820
188.9745
215.9858
245.2421
287.9345
304.0266
0.0000000 0.4000000 0.3000000
172.8228
184.1504
218.9959
226.9402
303.8627
306.1785
0.0000000 0.4000000 0.4000000
153.6261
198.8203
207.8743
239.6459
294.3115
306.2987
0.0000000 0.4000000 -0.5000000
148.0513
171.0239
229.5780
254.6209
272.0067
294.8688
0.0000000 -0.5000000 0.0000000
159.7591
197.4421
232.3853
260.8318
262.5904
273.7208
0.0000000 -0.5000000 0.1000000
165.0390
186.0962
233.1951
257.8253
274.9861
287.2797
0.0000000 -0.5000000 0.2000000
171.6829
187.2085
223.2273
244.8536
296.9702
308.8475
0.0000000 -0.5000000 0.3000000
185.5413
195.3952
218.0587
226.3323
310.2203
312.2548
0.0000000 -0.5000000 0.4000000
172.3639
197.1613
216.1786
239.8063
302.2618
311.9360
0.0000000 -0.5000000 -0.5000000
170.0428
179.9938
231.7285
254.3138
282.5646
295.2578
0.1000000 0.1000000 0.0000000
0.0000
83.2601
131.7286
241.2423
248.6375
299.2139
0.1000000 0.1000000 0.1000000
60.3852
95.4416
152.8190
233.6032
237.9129
290.2082
0.1000000 0.1000000 0.2000000
118.1523
130.7438
207.1330
211.7220
213.6911
277.5912
0.1000000 0.1000000 0.3000000
165.8626
172.9906
178.6979
185.1408
253.9448
262.9113
0.1000000 0.1000000 0.4000000
134.6488
144.5978
201.9337
205.9254
224.5303
274.1543
0.1000000 0.1000000 -0.5000000
79.6038
104.6233
167.8711
228.4317
230.6400
285.6946
0.1000000 0.2000000 0.0000000
46.0484
125.7889
187.2851
254.5154
264.9825
276.5408
0.1000000 0.2000000 0.1000000
66.5055
135.9843
201.4515
245.2481
247.7715
281.4044
0.1000000 0.2000000 0.2000000
115.5716
165.0534
212.3082
232.3762
236.1370
282.1206
0.1000000 0.2000000 0.3000000
164.5591
177.2840
200.2516
209.3921
267.5968
273.9279
0.1000000 0.2000000 0.4000000
132.2994
176.2062
202.4650
225.8815
247.4129
281.0239
0.1000000 0.2000000 -0.5000000
80.3597
143.5327
210.9298
235.5923
243.2737
282.1524
0.1000000 0.3000000 0.0000000
99.1918
158.4583
226.3211
253.4478
264.5492
277.9465
0.1000000 0.3000000 0.1000000
101.7778
167.2269
236.4307
237.5353
262.7533
284.7723
0.1000000 0.3000000 0.2000000
121.7939
192.1813
208.1351
246.4818
267.2239
293.3011
0.1000000 0.3000000 0.3000000
159.8933
172.4565
221.9315
229.5743
287.6547
291.4290
0.1000000 0.3000000 0.4000000
132.9330
196.8125
202.9062
242.2341
274.6491
294.2065
0.1000000 0.3000000 -0.5000000
105.4145
173.7336
227.8654
244.3595
260.2719
288.1042
0.1000000 0.4000000 0.0000000
151.0208
173.7310
234.7028
244.1567
270.6421
282.6993
0.1000000 0.4000000 0.1000000
146.7194
181.4320
228.1665
254.1867
272.4290
287.6528
0.1000000 0.4000000 0.2000000
145.2525
203.4703
209.6415
253.5636
285.8152
300.8999
0.1000000 0.4000000 0.3000000
166.8860
177.5261
231.2287
238.2890
300.8726
303.1246
0.1000000 0.4000000 0.4000000
149.4184
200.0490
213.1103
249.7657
291.6882
303.1668
0.1000000 0.4000000 -0.5000000
144.7020
187.1118
223.7452
256.8053
274.3285
292.1653
0.2000000 0.2000000 0.0000000
81.8833
145.2594
217.3760
260.5389
262.5709
273.2162
0.2000000 0.2000000 0.1000000
88.5642
154.6200
229.1077
241.6724
255.4334
283.6634
0.2000000 0.2000000 0.2000000
118.5530
181.3117
210.2547
240.9270
258.3794
290.2501
0.2000000 0.2000000 0.3000000
161.9706
174.9155
212.9030
221.2071
282.0435
286.5404
0.2000000 0.2000000 0.4000000
132.1823
191.3090
200.4762
235.4442
267.0235
290.5703
0.2000000 0.2000000 -0.5000000
95.2128
161.5544
232.4270
236.3027
252.2951
286.4813
0.2000000 0.3000000 0.0000000
117.8563
178.2544
230.8192
238.9495
276.4205
279.0084
0.2000000 0.3000000 0.1000000
117.6111
186.0749
228.8499
241.8960
274.1249
283.9941
0.2000000 0.3000000 0.2000000
127.7021
202.6183
209.7785
254.1883
275.3354
294.6290
0.2000000 0.3000000 0.3000000
157.6273
169.1647
235.2507
241.8015
291.5413
294.5957
0.2000000 0.3000000 0.4000000
135.4782
192.9162
218.1981
251.8704
280.8654
296.1432
0.2000000 0.3000000 -0.5000000
118.7287
191.8959
221.5272
248.6420
272.1059
287.8753
0.2000000 0.4000000 0.0000000
150.5146
201.4836
218.8442
237.0402
271.9492
292.2114
0.2000000 0.4000000 0.1000000
148.2553
207.7678
217.4014
247.7738
279.5586
287.9079
0.2000000 0.4000000 0.2000000
146.2751
198.9652
228.3420
262.3879
285.4957
294.6006
0.2000000 0.4000000 0.3000000
161.3051
170.0946
250.0721
255.2597
295.6426
297.5121
0.2000000 0.4000000 0.4000000
148.6776
190.4924
235.7485
262.0571
288.6440
297.0651
0.2000000 0.4000000 -0.5000000
146.8248
210.7480
215.7261
254.0118
283.4450
286.9671
0.3000000 0.3000000 0.0000000
154.9814
177.1245
231.5871
244.8148
270.9313
283.7411
0.3000000 0.3000000 0.1000000
150.2443
184.7787
226.7026
254.4054
274.0271
287.4069
0.3000000 0.3000000 0.2000000
147.3254
205.7249
209.6357
255.1883
286.6082
300.7482
0.3000000 0.3000000 0.3000000
167.1592
177.4596
233.5822
240.4762
301.1101
303.2555
0.3000000 0.3000000 0.4000000
150.8525
199.4535
215.9442
251.6029
292.2604
303.1149
0.3000000 0.3000000 -0.5000000
147.8920
190.3468
222.6309
257.4602
275.8569
291.8042
P = 202.9900	V = 130.1411	E = -655.45033109000000	S_el = 0.00000404358000
0.0000000 0.0000000 0.0000000
0.0000
0.0000
0.0000
252.0984
252.0984
369.3420
0.0000000 0.0000000 0.1000000
44.5297
44.5297
112.4955
241.1983
241.1983
352.5653
0.0000000 0.0000000 0.2000000
106.5400
106.5400
214.9685
215.8280
218.4582
325.3406
0.0000000 0.0000000 0.3000000
165.4510
165.4510
179.9840
179.9840
287.8571
300.3390
0.0000000 0.0000000 0.4000000
126.2289
126.2289
206.1807
206.1807
244.1585
318.5285
0.0000000 0.0000000 -0.5000000
62.3209
62.3209
146.8054
234.4062
234.4062
343.5857
0.0000000 0.1000000 0.0000000
0.0000
66.2977
108.7232
258.8005
264.4506
358.8655
0.0000000 0.1000000 0.1000000
67.6159
81.1670
142.4202
248.5646
253.0474
344.3740
0.0000000 0.1000000 0.2000000
126.1876
127.4162
221.7952
226.0889
226.9510
321.5212
0.0000000 0.1000000 0.3000000
179.1213
179.8333
192.3340
193.0583
286.8681
298.7049
0.0000000 0.1000000 0.4000000
143.7885
144.5387
216.2993
217.3737
246.4931
315.6202
0.0000000 0.1000000 -0.5000000
85.4602
92.9536
165.3873
242.2522
245.9149
336.7812
0.0000000 0.2000000 0.0000000
50.1249
121.8522
199.3481
273.2317
290.7597
332.7361
0.0000000 0.2000000 0.1000000
74.9052
132.0022
215.3227
264.3856
274.3676
328.5081
0.0000000 0.2000000 0.2000000
133.9115
166.6439
241.0447
245.1301
258.0023
321.6720
0.0000000 0.2000000 0.3000000
189.4773
205.7091
207.4423
220.0883
299.9937
308.3776
0.0000000 0.2000000 0.4000000
153.0121
180.1712
231.2535
237.2473
272.6285
319.1116
0.0000000 0.2000000 -0.5000000
91.1867
140.2486
225.3879
259.8507
264.9888
326.3505
0.0000000 0.3000000 0.0000000
112.2874
159.1418
259.3148
286.1328
304.8000
312.2914
0.0000000 0.3000000 0.1000000
114.1935
167.2733
271.6709
274.7308
281.8234
327.0456
0.0000000 0.3000000 0.2000000
140.9066
196.1510
244.3532
260.5149
301.6494
335.7564
0.0000000 0.3000000 0.3000000
188.9621
202.0000
233.3579
241.1864
327.9293
332.6078
0.0000000 0.3000000 0.4000000
155.0149
207.7357
231.1485
256.7846
311.0707
336.4448
0.0000000 0.3000000 -0.5000000
118.6987
174.0068
266.6153
273.2270
281.2618
330.5919
0.0000000 0.4000000 0.0000000
173.2485
176.8115
282.2642
289.2010
294.2452
322.0305
0.0000000 0.4000000 0.1000000
168.1582
182.7369
273.1121
282.5469
304.4028
333.2585
0.0000000 0.4000000 0.2000000
168.4900
208.1719
246.9208
270.2575
329.5087
349.1693
0.0000000 0.4000000 0.3000000
197.8594
210.3627
242.3367
250.9273
348.6033
351.3963
0.0000000 0.4000000 0.4000000
174.5475
219.0136
235.7444
266.4150
336.7433
351.6336
0.0000000 0.4000000 -0.5000000
166.0229
188.3406
267.1887
278.1359
311.6829
338.9270
0.0000000 -0.5000000 0.0000000
180.2046
219.7680
270.2599
291.0410
304.1789
320.7264
0.0000000 -0.5000000 0.1000000
184.6210
208.1698
269.9171
284.5719
317.8348
334.1233
0.0000000 -0.5000000 0.2000000
194.1130
208.1579
254.2318
272.2353
341.7209
356.4852
0.0000000 -0.5000000 0.3000000
211.3838
222.2286
243.0010
251.9896
358.0365
360.4303
0.0000000 -0.5000000 0.4000000
195.4816
218.9969
245.7919
267.3018
347.9265
359.8697
0.0000000 -0.5000000 -0.5000000
189.4003
202.1258
267.4519
280.7093
325.3686
341.9787
0.1000000 0.1000000 0.0000000
8.8100
92.0379
148.7820
264.7365
274.5657
349.2854
0.1000000 0.1000000 0.1000000
68.7808
104.1026
171.8741
255.0648
262.1412
337.5484
0.1000000 0.1000000 0.2000000
131.8272
144.7419
230.9061
233.6798
235.9387
319.8056
0.1000000 0.1000000 0.3000000
186.1050
191.3425
199.9508
203.7366
289.1896
299.9777
0.1000000 0.1000000 0.4000000
150.1976
159.9964
223.7207
225.6828
253.3459
315.0083
0.1000000 0.1000000 -0.5000000
88.5306
113.8527
188.1762
249.1627
254.3495
331.5995
0.1000000 0.2000000 0.0000000
61.1006
139.2106
211.9606
280.4409
294.9541
325.0980
0.1000000 0.2000000 0.1000000
77.6336
148.6440
226.8423
271.3173
276.3623
325.3543
0.1000000 0.2000000 0.2000000
130.6099
180.6641
240.9628
252.3420
266.9320
322.8896
0.1000000 0.2000000 0.3000000
186.6607
200.2269
221.2624
230.6284
304.5121
312.0393
0.1000000 0.2000000 0.4000000
149.2704
193.0561
228.7423
247.6388
279.8254
321.1595
0.1000000 0.2000000 -0.5000000
91.1255
156.2725
237.2082
263.9414
268.1104
324.8370
0.1000000 0.3000000 0.0000000
116.1025
175.8072
256.8877
292.8273
303.6685
310.8487
0.1000000 0.3000000 0.1000000
115.8647
183.7831
267.0299
273.2576
292.8655
325.1697
0.1000000 0.3000000 0.2000000
138.0417
210.7151
237.8667
271.1254
303.7500
334.8743
0.1000000 0.3000000 0.3000000
183.2527
197.0533
245.4398
253.4918
328.1209
332.5317
0.1000000 0.3000000 0.4000000
150.9920
218.6818
229.1227
266.9644
312.2438
335.8351
0.1000000 0.3000000 -0.5000000
119.0211
190.2084
263.3437
271.2803
291.8051
328.9912
0.1000000 0.4000000 0.0000000
170.6856
194.0338
274.3980
279.8239
306.2409
323.4542
0.1000000 0.4000000 0.1000000
164.3260
201.2289
264.9492
283.9730
310.0088
330.5770
0.1000000 0.4000000 0.2000000
163.6116
224.9120
239.2475
281.1784
327.3534
345.4556
0.1000000 0.4000000 0.3000000
190.5708
202.3191
257.3274
264.9370
345.4084
348.0525
0.1000000 0.4000000 0.4000000
169.0543
226.6532
237.4009
277.3145
334.0661
347.9899
0.1000000 0.4000000 -0.5000000
161.9229
206.8505
257.7353
285.5167
313.3378
335.5699
0.2000000 0.2000000 0.0000000
97.9314
160.9203
246.7027
288.7966
304.3371
311.6729
0.2000000 0.2000000 0.1000000
101.6722
169.4374
258.9800
274.8544
284.1103
324.5584
0.2000000 0.2000000 0.2000000
134.5469
198.4669
240.3755
263.3442
292.9730
331.2823
0.2000000 0.2000000 0.3000000
185.2529
199.3284
235.0839
243.8246
321.1881
326.4885
0.2000000 0.2000000 0.4000000
150.0729
209.6182
228.4503
258.9506
302.8182
331.4754
0.2000000 0.2000000 -0.5000000
107.9182
176.3184
263.6569
266.9382
280.0952
327.4467
0.2000000 0.3000000 0.0000000
136.0817
198.2320
262.0084
283.3067
309.6935
316.8126
0.2000000 0.3000000 0.1000000
132.9715
205.3397
266.3022
271.7018
307.9402
324.4065
0.2000000 0.3000000 0.2000000
144.1687
225.4854
237.8108
280.9192
313.8813
336.8015
0.2000000 0.3000000 0.3000000
180.7588
193.5683
261.1070
268.0265
333.5180
337.0048
0.2000000 0.3000000 0.4000000
153.5925
220.1055
241.7002
278.4835
320.4761
338.5626
0.2000000 0.3000000 -0.5000000
133.4406
211.0341
257.4981
276.4843
306.7606
328.9187
0.2000000 0.4000000 0.0000000
171.6133
225.4492
261.3948
268.9292
311.6012
331.2593
0.2000000 0.4000000 0.1000000
166.5758
230.9397
252.4873
281.1269
320.2120
327.0871
0.2000000 0.4000000 0.2000000
164.1078
225.7892
255.2939
293.3775
326.9064
338.0532
0.2000000 0.4000000 0.3000000
184.0818
193.8985
279.9696
285.5534
340.0544
342.1131
0.2000000 0.4000000 0.4000000
167.6447
216.6490
263.2521
292.7679
331.1671
340.9895
0.2000000 0.4000000 -0.5000000
164.3217
234.2168
248.4784
286.4994
322.7397
328.3696
0.3000000 0.3000000 0.0000000
175.0600
198.0213
272.8669
278.5774
307.5192
324.6181
0.3000000 0.3000000 0.1000000
168.2088
205.2215
262.7960
285.1056
312.0296
330.4929
0.3000000 0.3000000 0.2000000
165.7896
227.8623
238.9849
283.3997
328.5085
345.4910
0.3000000 0.3000000 0.3000000
190.7281
202.1044
260.3183
267.7503
345.9551
348.4672
0.3000000 0.3000000 0.4000000
170.5263
226.4213
240.3302
279.7398
334.9988
348.1485
0.3000000 0.3000000 -0.5000000
165.4232
210.7438
256.1195
287.0118
315.1814
335.3810
P = 502.6700	V = 121.3918	E = -655.43030895000000	S_el = 0.00000360285000
0.0000000 0.0000000 0.0000000
0.0000
0.0000
0.0000
275.8896
275.8896
427.8498
0.0000000 0.0000000 0.1000000
49.2153
49.2153
125.8317
263.7039
263.7039
408.2824
0.0000000 0.0000000 0.2000000
118.1720
118.1720
236.3070
236.1755
245.0624
374.9126
0.0000000 0.0000000 0.3000000
182.8136
182.8136
198.0007
198.0007
327.3434
342.2835
0.0000000 0.0000000 0.4000000
139.3103
139.3103
226.2414
226.2414
275.0231
366.2024
0.0000000 0.0000000 -0.5000000
68.4191
68.4191
163.4338
256.4461
256.4461
397.9094
0.0000000 0.1000000 0.0000000
7.4371
71.1616
121.2114
283.1671
290.2032
416.3577
0.0000000 0.1000000 0.1000000
75.7336
87.9923
160.2552
271.7134
277.8246
399.4301
0.0000000 0.1000000 0.2000000
139.5074
140.5895
245.5912
248.7995
253.0785
370.8098
0.0000000 0.1000000 0.3000000
197.4020
198.3262
211.2768
212.3370
326.4354
340.5886
0.0000000 0.1000000 0.4000000
158.2321
159.0700
237.1531
239.3522
278.2496
363.0473
0.0000000 0.1000000 -0.5000000
94.9406
100.6997
185.5758
264.9422
270.3485
390.5494
0.0000000 0.2000000 0.0000000
60.5400
131.5902
223.6350
299.2982
321.8373
387.4817
0.0000000 0.2000000 0.1000000
87.2685
143.0707
242.8075
289.3724
305.7760
380.8485
0.0000000 0.2000000 0.2000000
151.1763
181.7955
267.2066
270.8670
291.7115
369.5214
0.0000000 0.2000000 0.3000000
212.4317
227.5500
229.0410
239.7951
340.3815
350.4544
0.0000000 0.2000000 0.4000000
171.3057
196.3597
257.9618
260.8499
307.9600
365.4685
0.0000000 0.2000000 -0.5000000
104.3662
152.0275
254.6902
284.2708
296.0845
377.5198
0.0000000 0.3000000 0.0000000
126.8567
173.5669
295.0750
314.2681
349.5130
356.5500
0.0000000 0.3000000 0.1000000
130.3488
182.6274
304.2986
310.1195
319.0448
374.8935
0.0000000 0.3000000 0.2000000
160.5368
214.5802
278.1177
286.4572
342.7570
383.9759
0.0000000 0.3000000 0.3000000
213.8877
229.0869
255.0948
264.1099
372.3851
377.9578
0.0000000 0.3000000 0.4000000
175.5400
226.9945
264.0873
281.1689
352.9404
384.0234
0.0000000 0.3000000 -0.5000000
135.6078
189.8399
299.3881
306.8697
319.2082
378.9124
0.0000000 0.4000000 0.0000000
192.7499
195.9632
320.9526
331.6679
334.2480
368.6104
0.0000000 0.4000000 0.1000000
188.8293
201.8221
311.1897
316.6920
349.4829
383.2581
0.0000000 0.4000000 0.2000000
190.9956
229.7105
282.6238
298.2733
377.2458
401.0625
0.0000000 0.4000000 0.3000000
224.5009
238.4940
267.4623
276.7796
398.7760
402.1202
0.0000000 0.4000000 0.4000000
197.7412
241.2982
269.6428
293.8630
385.0689
403.3680
0.0000000 0.4000000 -0.5000000
187.1683
207.7272
305.0394
310.4254
357.3023
389.7249
0.0000000 -0.5000000 0.0000000
201.7288
244.8814
312.6057
325.4294
351.8235
373.6268
0.0000000 -0.5000000 0.1000000
206.3596
233.3728
309.7771
317.5703
366.9463
387.9693
0.0000000 -0.5000000 0.2000000
219.6557
231.9822
290.0521
302.6533
393.2885
411.4989
0.0000000 -0.5000000 0.3000000
239.9223
251.9492
270.3892
280.0939
412.3270
415.1641
0.0000000 -0.5000000 0.4000000
221.4577
243.5336
279.9377
297.3915
400.2517
414.9529
0.0000000 -0.5000000 -0.5000000
211.3182
227.5190
306.2420
313.2792
374.7906
396.0088
0.1000000 0.1000000 0.0000000
23.7731
99.0282
166.1972
289.7489
302.1234
405.8168
0.1000000 0.1000000 0.1000000
78.6012
112.7352
193.4152
278.9234
289.0411
391.8594
0.1000000 0.1000000 0.2000000
147.4006
158.0889
254.9940
258.4848
264.1055
368.6497
0.1000000 0.1000000 0.3000000
206.3572
209.7599
220.9633
223.1238
328.8868
341.8071
0.1000000 0.1000000 0.4000000
166.8559
174.5162
246.3914
248.5437
286.1496
362.0601
0.1000000 0.1000000 -0.5000000
99.3761
123.3855
211.6076
272.5693
281.0451
384.6626
0.1000000 0.2000000 0.0000000
72.2423
150.7879
237.7232
308.1973
327.0835
379.0136
0.1000000 0.2000000 0.1000000
90.5734
161.6624
255.5647
299.1521
308.5052
376.5114
0.1000000 0.2000000 0.2000000
147.7435
197.3084
270.7672
276.7764
302.2025
370.3800
0.1000000 0.2000000 0.3000000
209.0091
223.2940
243.0131
252.3585
345.4344
354.4400
0.1000000 0.2000000 0.4000000
167.3781
210.5268
258.0198
270.9317
316.4173
367.3480
0.1000000 0.2000000 -0.5000000
104.7039
169.9705
266.8946
293.5623
298.3225
375.0101
0.1000000 0.3000000 0.0000000
131.1559
192.1471
288.6153
331.1345
346.1326
352.5635
0.1000000 0.3000000 0.1000000
132.0197
201.4253
299.0807
312.6489
329.0702
372.3275
0.1000000 0.3000000 0.2000000
156.7348
231.1138
271.7116
298.7075
345.6672
382.9668
0.1000000 0.3000000 0.3000000
206.8804
222.2079
270.0855
278.6069
373.0046
378.1870
0.1000000 0.3000000 0.4000000
170.4450
240.9297
259.9403
293.9816
354.8448
383.4058
0.1000000 0.3000000 -0.5000000
135.6680
208.4052
298.5150
305.0665
329.5902
376.8331
0.1000000 0.4000000 0.0000000
190.8495
214.4946
312.9929
322.0597
346.8871
369.2441
0.1000000 0.4000000 0.1000000
184.3649
223.0385
304.0074
319.2131
353.9400
379.7891
0.1000000 0.4000000 0.2000000
184.5310
249.0099
272.9612
312.8399
375.0990
396.7452
0.1000000 0.4000000 0.3000000
215.0965
228.1818
285.5182
293.7185
395.3280
398.4306
0.1000000 0.4000000 0.4000000
190.4840
254.0084
266.7584
308.2770
382.3532
399.1796
0.1000000 0.4000000 -0.5000000
182.1209
229.1612
295.6033
319.2094
358.6638
385.6609
0.2000000 0.2000000 0.0000000
111.4821
175.2276
277.7064
319.2332
345.0684
358.9138
0.2000000 0.2000000 0.1000000
116.7897
184.9945
290.7281
310.1565
318.8266
372.6415
0.2000000 0.2000000 0.2000000
153.0001
217.1570
273.1817
289.5701
332.6104
378.8865
0.2000000 0.2000000 0.3000000
208.9612
224.4985
258.0188
267.2188
364.5145
370.8044
0.2000000 0.2000000 0.4000000
169.3949
229.0385
259.9928
284.2328
343.2920
378.3113
0.2000000 0.2000000 -0.5000000
123.6748
192.4528
295.0993
302.5808
314.3849
375.6693
0.2000000 0.3000000 0.0000000
153.0601
217.7181
294.0864
332.1214
348.7847
356.1924
0.2000000 0.3000000 0.1000000
150.4770
226.2184
303.2997
308.4644
347.8362
371.0643
0.2000000 0.3000000 0.2000000
163.0062
249.6644
270.9959
311.1941
358.2874
385.4999
0.2000000 0.3000000 0.3000000
203.8402
218.2071
288.5715
295.9197
380.2546
384.2598
0.2000000 0.3000000 0.4000000
172.9795
247.7086
269.9789
308.1690
365.5058
387.0128
0.2000000 0.3000000 -0.5000000
151.1816
232.4071
296.5699
308.8866
347.8553
376.6146
0.2000000 0.4000000 0.0000000
192.7514
249.9683
302.1830
307.0769
355.1888
375.7858
0.2000000 0.4000000 0.1000000
187.3897
256.6408
292.3347
317.5005
366.4906
373.1511
0.2000000 0.4000000 0.2000000
184.4296
255.0597
287.1713
328.6409
374.8625
388.2122
0.2000000 0.4000000 0.3000000
206.7569
217.8670
312.2367
318.2848
389.8403
392.1302
0.2000000 0.4000000 0.4000000
188.0630
245.0529
294.5292
327.3041
379.7621
391.2462
0.2000000 0.4000000 -0.5000000
184.9885
260.5661
286.3949
322.9507
368.6366
376.5605
0.3000000 0.3000000 0.0000000
195.7715
219.1894
312.7685
319.2021
349.0293
370.7994
0.3000000 0.3000000 0.1000000
188.6268
227.8194
301.9856
320.5382
356.4261
379.9136
0.3000000 0.3000000 0.2000000
186.8019
252.7007
272.5100
315.7763
376.6942
397.0064
0.3000000 0.3000000 0.3000000
215.0950
227.7683
289.2673
297.2841
396.2710
399.2119
0.3000000 0.3000000 0.4000000
191.9841
254.5371
269.4637
311.4314
383.7281
399.5995
0.3000000 0.3000000 -0.5000000
185.9329
233.8487
293.8751
321.2338
360.9219
385.6664
P = 752.4200	V = 115.9289	E = -655.40741899000000	S_el = 0.00000334223000
0.0000000 0.0000000 0.0000000
0.0000
0.0000
0.0000
291.6272
291.6272
467.8158
0.0000000 0.0000000 0.1000000
52.7027
52.7028
135.2777
279.0232
279.0232
446.4880
0.0000000 0.0000000 0.2000000
125.3561
125.3561
250.4634
250.1442
264.0033
409.0423
0.0000000 0.0000000 0.3000000
193.6180
193.6180
209.4649
209.4649
354.5006
371.0906
0.0000000 0.0000000 0.4000000
147.2418
147.2418
239.7911
239.7911
296.2927
399.0600
0.0000000 0.0000000 -0.5000000
72.6254
72.6254
175.1156
271.6027
271.6027
435.2520
0.0000000 0.1000000 0.0000000
12.8870
73.7438
129.3953
299.2811
307.2432
455.5195
0.0000000 0.1000000 0.1000000
81.6011
92.6486
172.6949
287.4653
294.7002
437.1732
0.0000000 0.1000000 0.2000000
147.8783
149.4589
260.7589
264.4748
272.2191
404.7733
0.0000000 0.1000000 0.3000000
208.7355
210.1523
223.2221
224.8373
353.5173
369.2357
0.0000000 0.1000000 0.4000000
167.1076
168.5364
251.1107
254.2863
300.0913
395.7240
0.0000000 0.1000000 -0.5000000
101.7670
105.9750
199.7049
280.5362
287.1448
427.5385
0.0000000 0.2000000 0.0000000
65.9678
137.1229
239.6825
316.5599
342.4980
424.5094
0.0000000 0.2000000 0.1000000
96.1640
150.4155
261.7763
306.3768
326.9551
416.9591
0.0000000 0.2000000 0.2000000
163.2046
191.8870
283.7843
289.5759
315.0560
402.7243
0.0000000 0.2000000 0.3000000
227.6660
240.2115
244.0676
252.2631
367.8251
379.0747
0.0000000 0.2000000 0.4000000
183.5988
206.8986
274.6402
277.9885
332.2056
397.5090
0.0000000 0.2000000 -0.5000000
114.1212
160.0500
275.5295
300.4353
317.3230
413.0554
0.0000000 0.3000000 0.0000000
135.7677
182.3638
319.0501
332.7074
377.2714
388.7546
0.0000000 0.3000000 0.1000000
141.7700
192.9102
324.6058
334.6210
345.6850
408.2356
0.0000000 0.3000000 0.2000000
174.3431
227.0964
299.4961
305.8197
371.1578
417.3482
0.0000000 0.3000000 0.3000000
230.1283
247.3266
268.7221
279.1003
402.5081
408.7002
0.0000000 0.3000000 0.4000000
189.5110
239.8472
286.0038
298.0234
381.6610
416.7666
0.0000000 0.3000000 -0.5000000
147.8777
200.6810
319.6641
331.4518
345.9066
412.5796
0.0000000 0.4000000 0.0000000
205.4142
208.4397
344.3739
361.0936
362.9509
400.1380
0.0000000 0.4000000 0.1000000
203.1528
214.7718
334.7167
342.4367
380.3963
417.6131
0.0000000 0.4000000 0.2000000
206.5944
244.4965
306.6887
317.8240
410.0985
436.7570
0.0000000 0.4000000 0.3000000
242.1421
257.1688
284.1249
293.9249
432.8407
436.5569
0.0000000 0.4000000 0.4000000
213.5176
256.4027
293.1968
312.0079
418.1719
438.8212
0.0000000 0.4000000 -0.5000000
201.9902
221.0897
328.7555
334.8659
388.7377
424.7290
0.0000000 -0.5000000 0.0000000
215.8711
261.8104
340.4166
349.4702
384.4057
409.4932
0.0000000 -0.5000000 0.1000000
221.2084
250.5546
335.7553
341.3982
400.5721
424.9454
0.0000000 -0.5000000 0.2000000
237.1047
248.4308
314.3254
323.4357
428.7052
449.3704
0.0000000 -0.5000000 0.3000000
259.0276
271.8507
288.7458
298.8879
449.3082
452.4629
0.0000000 -0.5000000 0.4000000
239.0662
260.3121
303.2159
317.6168
436.0705
452.7634
0.0000000 -0.5000000 -0.5000000
226.4728
244.8917
331.6066
336.7616
408.7676
433.2397
0.1000000 0.1000000 0.0000000
30.4491
102.8530
177.6380
306.2992
320.3739
444.2235
0.1000000 0.1000000 0.1000000
85.7028
118.5151
208.3481
295.1657
307.3374
429.1133
0.1000000 0.1000000 0.2000000
158.0937
166.6874
270.4248
275.4799
284.6099
402.3772
0.1000000 0.1000000 0.3000000
219.0563
221.6142
234.1052
235.9031
355.9664
370.3422
0.1000000 0.1000000 0.4000000
177.8373
183.7220
261.1454
264.4500
308.6844
394.5075
0.1000000 0.1000000 -0.5000000
107.3175
129.8888
227.9553
288.6568
299.3416
421.2360
0.1000000 0.2000000 0.0000000
78.2355
157.5600
254.6387
326.7355
348.4334
415.3966
0.1000000 0.2000000 0.1000000
99.8544
170.3591
275.1409
317.9259
330.4249
411.9705
0.1000000 0.2000000 0.2000000
159.7137
208.4957
289.9201
294.5086
326.6321
403.3717
0.1000000 0.2000000 0.3000000
223.3108
237.8494
257.3343
266.4719
373.2086
383.2468
0.1000000 0.2000000 0.4000000
179.5446
222.0107
277.5119
286.8202
341.5355
399.2725
0.1000000 0.2000000 -0.5000000
114.7676
179.3483
286.9862
313.3195
319.8315
409.9871
0.1000000 0.3000000 0.0000000
140.3696
202.2631
309.0797
355.1662
374.2269
383.0853
0.1000000 0.3000000 0.1000000
143.4143
213.3190
319.9304
339.0696
354.8877
405.1781
0.1000000 0.3000000 0.2000000
169.8550
245.0190
294.5844
317.8198
374.6463
416.2440
0.1000000 0.3000000 0.3000000
222.0830
238.3838
286.3632
295.1678
403.4186
409.1328
0.1000000 0.3000000 0.4000000
183.6070
255.3132
281.2914
312.3520
384.0805
416.1303
0.1000000 0.3000000 -0.5000000
147.7434
220.9164
320.4879
329.4923
356.4212
410.1566
0.1000000 0.4000000 0.0000000
204.0339
227.6580
336.6776
351.6540
374.8379
400.4134
0.1000000 0.4000000 0.1000000
198.2202
237.9136
329.2784
344.1145
384.5233
413.6238
0.1000000 0.4000000 0.2000000
199.0148
265.5610
295.8931
334.7646
407.9719
432.0432
0.1000000 0.4000000 0.3000000
231.0701
245.0334
304.3628
312.9422
429.2050
432.6183
0.1000000 0.4000000 0.4000000
204.9731
271.6692
287.5278
329.4748
415.4338
434.2660
0.1000000 0.4000000 -0.5000000
196.2980
244.5885
320.8505
342.9531
390.0805
420.1943
0.2000000 0.2000000 0.0000000
119.5157
183.8986
297.9541
339.7505
370.4752
392.6129
0.2000000 0.2000000 0.1000000
127.5188
195.4269
311.4822
333.6346
343.5505
406.2447
0.2000000 0.2000000 0.2000000
165.9703
229.8428
294.7376
308.2619
360.0267
411.8982
0.2000000 0.2000000 0.3000000
224.2499
240.6926
273.0800
282.5249
393.8743
400.8531
0.2000000 0.2000000 0.4000000
182.4795
241.9644
281.1638
301.4633
371.0691
410.5932
0.2000000 0.2000000 -0.5000000
135.2016
203.5185
315.0793
327.2618
339.1564
409.3700
0.2000000 0.3000000 0.0000000
163.7212
230.0737
314.7042
364.2649
376.2048
382.4966
0.2000000 0.3000000 0.1000000
162.7439
240.3731
326.3840
334.6949
375.9211
403.3451
0.2000000 0.3000000 0.2000000
176.1962
265.6903
294.1637
332.0059
389.0027
419.1180
0.2000000 0.3000000 0.3000000
218.6116
233.9969
306.8178
314.4357
411.9328
416.2903
0.2000000 0.3000000 0.4000000
186.0686
265.3080
290.1412
328.4119
396.4118
420.2801
0.2000000 0.3000000 -0.5000000
163.9364
247.1300
322.1548
331.7399
376.8094
409.6750
0.2000000 0.4000000 0.0000000
206.4660
265.9304
326.9657
334.1185
384.4103
406.3818
0.2000000 0.4000000 0.1000000
201.8120
274.1922
319.3462
341.9094
398.1976
405.2961
0.2000000 0.4000000 0.2000000
198.5632
274.6141
309.5657
352.8396
408.0225
422.7420
0.2000000 0.4000000 0.3000000
221.2861
233.2670
333.7937
340.1527
423.6038
426.0478
0.2000000 0.4000000 0.4000000
201.8513
263.9925
316.0921
350.8811
413.1048
425.6861
0.2000000 0.4000000 -0.5000000
199.5837
278.6578
312.4795
347.7184
400.5593
409.9180
0.3000000 0.3000000 0.0000000
209.3469
232.8523
337.1113
347.9535
377.4472
402.3241
0.3000000 0.3000000 0.1000000
202.7244
243.2468
327.6824
345.2532
387.3014
413.8927
0.3000000 0.3000000 0.2000000
201.3362
269.7290
295.3785
338.1715
409.8621
432.4544
0.3000000 0.3000000 0.3000000
230.9532
244.4809
308.6374
317.0325
430.4204
433.6529
0.3000000 0.3000000 0.4000000
206.4850
272.8107
290.0038
333.1287
417.1068
434.8619
0.3000000 0.3000000 -0.5000000
200.3029
249.8276
319.2547
345.1304
392.6252
420.3256
P = 1002.4800	V = 111.4903	E = -655.38125575000000	S_el = 0.00000313877000
0.0000000 0.0000000 0.0000000
0.0000
0.0000
0.0000
305.3080
305.3080
502.7348
0.0000000 0.0000000 0.1000000
56.1393
56.1394
143.6818
292.5112
292.5112
479.9661
0.0000000 0.0000000 0.2000000
131.5657
131.5657
262.7535
262.4490
280.8461
439.0415
0.0000000 0.0000000 0.3000000
202.7153
202.7153
219.1990
219.1990
378.3277
396.3491
0.0000000 0.0000000 0.4000000
153.9614
153.9614
251.6298
251.6298
314.9404
427.9629
0.0000000 0.0000000 -0.5000000
76.6119
76.6119
185.4520
285.0008
285.0008
468.0324
0.0000000 0.1000000 0.0000000
16.7534
75.8128
136.5789
313.2748
322.0595
489.7299
0.0000000 0.1000000 0.1000000
87.0351
96.9484
183.8150
301.3304
309.5663
470.2614
0.0000000 0.1000000 0.2000000
155.0872
157.3708
273.6709
278.3184
289.5542
434.6522
0.0000000 0.1000000 0.3000000
218.2566
220.2764
233.3259
235.5854
377.2854
394.3589
0.0000000 0.1000000 0.4000000
174.6279
176.8087
263.2740
267.3990
319.2983
424.4863
0.0000000 0.1000000 -0.5000000
107.9852
110.9008
212.2986
294.3205
301.9960
460.0322
0.0000000 0.2000000 0.0000000
70.4655
141.6693
253.7526
331.5277
360.4922
456.8291
0.0000000 0.2000000 0.1000000
104.3186
156.9530
278.6524
321.3335
345.5064
448.7540
0.0000000 0.2000000 0.2000000
173.9850
200.7655
297.8681
306.4885
335.7697
432.0722
0.0000000 0.2000000 0.3000000
240.7140
250.6882
257.1885
263.1251
391.9404
404.2145
0.0000000 0.2000000 0.4000000
194.4464
216.0379
288.6422
293.5502
353.6171
425.8118
0.0000000 0.2000000 -0.5000000
123.1151
167.2548
294.0163
314.7307
336.0232
444.4431
0.0000000 0.3000000 0.0000000
143.4686
189.7791
339.5256
349.1019
400.5735
417.8402
0.0000000 0.3000000 0.1000000
152.1006
201.9980
341.6624
356.3519
369.5480
437.7940
0.0000000 0.3000000 0.2000000
186.7506
238.1519
317.3950
323.7046
396.2888
446.8263
0.0000000 0.3000000 0.3000000
244.2160
263.0653
280.5007
292.0114
428.9313
435.6605
0.0000000 0.3000000 0.4000000
201.9086
251.0835
304.6712
313.3092
406.9927
445.6395
0.0000000 0.3000000 -0.5000000
159.0483
210.3468
336.6604
353.6444
369.7366
442.4046
0.0000000 0.4000000 0.0000000
216.2646
219.3143
363.6253
387.0135
388.7691
427.7070
0.0000000 0.4000000 0.1000000
215.8523
226.2195
354.2665
366.0078
407.5859
447.8278
0.0000000 0.4000000 0.2000000
220.4343
257.5900
327.3414
335.4546
439.0176
468.1464
0.0000000 0.4000000 0.3000000
257.4743
273.3873
298.5611
308.7728
462.6476
466.6835
0.0000000 0.4000000 0.4000000
227.4121
269.6776
313.7211
328.0000
447.2508
469.9560
0.0000000 0.4000000 -0.5000000
215.1837
232.9840
348.5760
357.3362
416.4340
455.5385
0.0000000 -0.5000000 0.0000000
228.1107
276.4875
363.8665
371.0624
412.9108
440.7846
0.0000000 -0.5000000 0.1000000
234.3391
265.5535
357.7356
362.9402
430.0246
457.4029
0.0000000 -0.5000000 0.2000000
252.3869
263.0128
335.2768
341.8137
459.7700
482.6472
0.0000000 -0.5000000 0.3000000
275.5834
289.0802
304.7104
315.2075
481.6305
485.0697
0.0000000 -0.5000000 0.4000000
254.4346
275.0980
323.4608
335.2871
467.4395
485.9419
0.0000000 -0.5000000 -0.5000000
239.9509
260.0892
353.1482
357.9562
438.5807
465.9724
0.1000000 0.1000000 0.0000000
35.1274
105.9612
187.6698
320.6682
336.2462
477.7663
0.1000000 0.1000000 0.1000000
92.2456
123.7425
221.6743
309.4683
323.4409
461.7979
0.1000000 0.1000000 0.2000000
167.5116
174.3020
283.6213
290.4587
303.1526
432.0917
0.1000000 0.1000000 0.3000000
229.7101
231.8528
245.1607
247.0501
379.7451
395.3816
0.1000000 0.1000000 0.4000000
187.3056
191.7762
273.8407
278.5804
328.5453
423.1020
0.1000000 0.1000000 -0.5000000
114.6361
135.7981
242.5346
302.8874
315.4933
453.4043
0.1000000 0.2000000 0.0000000
83.2737
163.2278
269.3196
342.9616
367.0045
447.1391
0.1000000 0.2000000 0.1000000
108.3511
178.1023
292.2859
334.5547
349.6797
443.2726
0.1000000 0.2000000 0.2000000
170.4541
218.3734
306.1628
310.6646
348.3082
432.5592
0.1000000 0.2000000 0.3000000
235.5386
250.1231
269.8488
278.6791
397.6112
408.5494
0.1000000 0.2000000 0.4000000
190.2791
232.0202
294.2363
301.0495
363.7248
427.4843
0.1000000 0.2000000 -0.5000000
124.0482
187.7651
304.4542
330.7632
339.0775
440.9482
0.1000000 0.3000000 0.0000000
148.3540
210.8817
326.5263
375.6203
398.4170
410.8214
0.1000000 0.3000000 0.1000000
153.7170
223.8568
337.8097
362.0269
378.1194
434.3054
0.1000000 0.3000000 0.2000000
181.6433
257.3291
314.3789
334.9307
400.2881
445.6305
0.1000000 0.3000000 0.3000000
235.1608
252.2195
300.5591
309.5745
430.0874
436.2613
0.1000000 0.3000000 0.4000000
195.2638
267.7216
300.0627
328.6179
409.8635
444.9750
0.1000000 0.3000000 -0.5000000
158.7415
232.0805
338.9233
351.4824
380.4849
439.6745
0.1000000 0.4000000 0.0000000
215.5137
238.9993
356.3157
377.9268
399.4726
427.7451
0.1000000 0.4000000 0.1000000
210.5188
251.0853
350.6821
366.4286
411.6073
443.3919
0.1000000 0.4000000 0.2000000
211.8850
280.2161
315.8813
354.2053
436.9113
463.0861
0.1000000 0.4000000 0.3000000
244.8565
259.5372
320.8128
329.7085
458.8377
462.5182
0.1000000 0.4000000 0.4000000
217.7285
286.8069
306.0274
348.1785
444.4916
465.0762
0.1000000 0.4000000 -0.5000000
208.9498
258.3189
342.5488
364.2291
417.8315
450.5949
0.2000000 0.2000000 0.0000000
126.4353
191.2217
315.3251
357.8485
391.9276
422.7321
0.2000000 0.2000000 0.1000000
137.2630
204.6730
329.2666
354.1412
365.7169
436.0665
0.2000000 0.2000000 0.2000000
177.6296
241.0656
313.1252
325.2287
384.3126
441.0893
0.2000000 0.2000000 0.3000000
237.3952
254.5005
286.2092
295.8104
419.6411
427.2189
0.2000000 0.2000000 0.4000000
194.0664
253.2785
299.4111
316.8521
395.5869
439.0876
0.2000000 0.2000000 -0.5000000
145.7461
213.4066
332.0565
349.0295
361.5639
439.2661
0.2000000 0.3000000 0.0000000
173.0045
240.7068
332.2832
391.6328
400.6432
405.7873
0.2000000 0.3000000 0.1000000
173.7844
252.9058
345.7564
358.1135
401.0107
431.8688
0.2000000 0.3000000 0.2000000
188.0415
279.6711
314.6520
350.3973
416.1573
448.7497
0.2000000 0.3000000 0.3000000
231.3206
247.5288
322.7467
330.5764
439.6773
444.3354
0.2000000 0.3000000 0.4000000
197.6637
280.2626
308.2764
346.2469
423.6383
449.5486
0.2000000 0.3000000 -0.5000000
175.5007
260.2392
343.9165
352.2957
402.6543
438.8773
0.2000000 0.4000000 0.0000000
218.4282
279.7742
347.4168
358.3403
409.8198
433.3385
0.2000000 0.4000000 0.1000000
214.6524
289.7146
342.8243
363.2256
426.0609
433.7792
0.2000000 0.4000000 0.2000000
211.1824
291.6011
329.5110
374.1454
437.2719
453.0879
0.2000000 0.4000000 0.3000000
233.8177
246.5207
352.6059
359.2279
453.1139
455.6856
0.2000000 0.4000000 0.4000000
214.0397
280.4429
335.1783
371.6140
442.4102
455.9007
0.2000000 0.4000000 -0.5000000
212.6619
294.6774
335.3620
369.4045
428.8100
439.3211
0.3000000 0.3000000 0.0000000
221.1683
244.6401
357.2107
373.6119
402.4309
429.9953
0.3000000 0.3000000 0.1000000
215.2256
256.9036
349.5775
367.2878
414.6197
443.7839
0.3000000 0.3000000 0.2000000
214.2440
284.7857
315.3512
357.9989
439.0482
463.6219
0.3000000 0.3000000 0.3000000
244.6383
258.8667
325.5476
334.2599
460.2836
463.7672
0.3000000 0.3000000 0.4000000
219.2468
288.4970
308.3042
352.2577
446.4148
465.8188
0.3000000 0.3000000 -0.5000000
213.1137
264.0400
341.1683
366.4343
420.6177
450.8299
P = 1503.1000	V = 104.5144	E = -655.32274984000000	S_el = 0.00000283306000
0.0000000 0.0000000 0.0000000
0.0000
0.0000
0.0000
329.0755
329.0755
562.8713
0.0000000 0.0000000 0.1000000
63.1004
63.1004
158.3688
316.1269
316.1269
537.8184
0.0000000 0.0000000 0.2000000
142.6840
142.6840
284.0162
283.9116
310.1704
491.0704
0.0000000 0.0000000 0.3000000
218.1469
218.1469
235.7459
235.7459
419.5337
440.0120
0.0000000 0.0000000 0.4000000
165.6909
165.6909
272.1489
272.1489
347.1087
478.1334
0.0000000 0.0000000 -0.5000000
84.4708
84.4708
203.4075
308.5022
308.5022
524.7937
0.0000000 0.1000000 0.0000000
22.7256
79.3865
149.3534
337.5422
347.8062
548.7203
0.0000000 0.1000000 0.1000000
97.1349
105.1225
203.5771
325.5980
335.6117
527.4985
0.0000000 0.1000000 0.2000000
167.7733
171.6426
295.7064
302.5099
320.3301
486.5334
0.0000000 0.1000000 0.3000000
234.3739
237.7069
250.4701
254.0896
418.5237
437.9038
0.0000000 0.1000000 0.4000000
187.6462
191.4495
284.3605
290.2612
352.6569
474.4828
0.0000000 0.1000000 -0.5000000
119.2351
120.4432
234.5215
318.5053
328.0633
516.3511
0.0000000 0.2000000 0.0000000
78.8345
149.4992
278.6065
357.3898
391.7735
512.6962
0.0000000 0.2000000 0.1000000
119.2429
168.7912
308.5506
347.4746
377.8428
504.0136
0.0000000 0.2000000 0.2000000
193.2461
216.4776
321.8979
336.5267
372.2200
483.2909
0.0000000 0.2000000 0.3000000
262.6975
268.7119
279.5264
282.5699
434.0474
448.0548
0.0000000 0.2000000 0.4000000
213.6529
231.9907
312.2019
321.4274
391.1486
475.2545
0.0000000 0.2000000 -0.5000000
139.5200
180.3276
326.0762
340.3563
368.7051
499.1257
0.0000000 0.3000000 0.0000000
157.3341
202.5521
373.6137
378.9338
439.9279
469.3865
0.0000000 0.3000000 0.1000000
170.7256
218.1653
370.4523
394.5663
411.5514
489.5496
0.0000000 0.3000000 0.2000000
208.9195
257.6488
347.0764
356.3071
440.3426
498.2814
0.0000000 0.3000000 0.3000000
268.8076
289.7403
301.3990
314.1990
474.9878
482.6211
0.0000000 0.3000000 0.4000000
223.9312
270.7135
335.7259
341.3141
451.3023
496.0313
0.0000000 0.3000000 -0.5000000
179.1618
227.6103
365.3473
392.8657
411.7774
494.5602
0.0000000 0.4000000 0.0000000
234.8000
238.4692
395.3295
431.9921
434.5067
475.5081
0.0000000 0.4000000 0.1000000
238.1612
246.4488
386.7205
408.1044
454.9035
500.3460
0.0000000 0.4000000 0.2000000
244.7741
280.6540
361.9518
367.2787
489.3242
522.6637
0.0000000 0.4000000 0.3000000
284.0835
301.4543
323.4441
334.3424
514.3018
518.8744
0.0000000 0.4000000 0.4000000
251.7618
292.8961
348.5477
356.5120
497.7674
524.0031
0.0000000 0.4000000 -0.5000000
238.3875
254.0905
381.5521
397.6960
464.6617
509.0846
0.0000000 -0.5000000 0.0000000
249.2795
301.5787
402.3947
409.7194
462.0946
494.7513
0.0000000 -0.5000000 0.1000000
257.4718
291.3702
394.2825
401.3349
480.9215
513.6332
0.0000000 -0.5000000 0.2000000
278.8260
288.6727
370.6774
374.1865
513.5054
540.3279
0.0000000 -0.5000000 0.3000000
303.9732
318.5684
332.2584
343.3214
537.4202
541.3606
0.0000000 -0.5000000 0.4000000
280.9627
300.9637
358.0565
365.9945
521.6413
543.3969
0.0000000 -0.5000000 -0.5000000
263.7906
286.3005
389.1612
395.6469
490.1582
522.7404
0.1000000 0.1000000 0.0000000
42.3803
111.3495
205.4510
345.5677
363.8253
535.6647
0.1000000 0.1000000 0.1000000
104.2955
133.4302
245.3597
334.5147
351.6289
518.4021
0.1000000 0.1000000 0.2000000
183.9325
188.1930
306.2730
316.6398
336.0863
483.7709
0.1000000 0.1000000 0.3000000
247.5624
249.7101
263.8196
266.5795
421.1201
438.8922
0.1000000 0.1000000 0.4000000
203.5324
206.2876
295.6795
303.4370
363.2089
472.8938
0.1000000 0.1000000 -0.5000000
128.0421
146.7316
268.3294
327.8877
343.8051
509.2310
0.1000000 0.2000000 0.0000000
92.6685
173.1304
294.8569
371.3594
399.2213
502.0322
0.1000000 0.2000000 0.1000000
123.8893
192.0814
321.9850
364.1412
383.2124
497.8033
0.1000000 0.2000000 0.2000000
189.6546
235.8790
333.5359
339.7935
386.4466
483.5528
0.1000000 0.2000000 0.3000000
256.5311
270.8156
291.8621
299.9125
440.2371
452.6989
0.1000000 0.2000000 0.4000000
209.2829
249.5603
322.4577
326.7207
402.6365
476.8056
0.1000000 0.2000000 -0.5000000
140.9720
202.9798
334.4107
361.8080
372.9795
494.9948
0.1000000 0.3000000 0.0000000
162.7938
225.8854
356.1668
410.8664
439.6742
460.3960
0.1000000 0.3000000 0.1000000
172.3005
242.6210
368.3722
401.5573
419.4333
485.3297
0.1000000 0.3000000 0.2000000
202.7199
279.0850
348.0511
365.5289
445.2182
496.9067
0.1000000 0.3000000 0.3000000
257.8014
275.9195
325.3933
334.6823
476.5393
483.4847
0.1000000 0.3000000 0.4000000
215.9638
289.2578
332.5202
357.4129
454.9413
495.2896
0.1000000 0.3000000 -0.5000000
178.5623
252.0061
369.8956
390.3523
423.1110
491.2930
0.1000000 0.4000000 0.0000000
235.6528
258.6935
388.9243
423.9145
442.4452
475.2329
0.1000000 0.4000000 0.1000000
232.1949
274.3667
386.5071
405.9936
458.9610
495.1535
0.1000000 0.4000000 0.2000000
234.5962
306.0187
350.2294
388.3742
487.2498
516.9928
0.1000000 0.4000000 0.3000000
268.6996
284.4819
349.4431
358.8547
510.1707
514.2991
0.1000000 0.4000000 0.4000000
240.1391
312.7798
338.4455
380.9522
494.9635
518.5457
0.1000000 0.4000000 -0.5000000
231.2910
282.6362
379.2525
402.0034
466.2329
503.4344
0.2000000 0.2000000 0.0000000
139.0606
203.9332
344.9743
389.8150
428.4599
475.6208
0.2000000 0.2000000 0.1000000
154.9241
221.1946
359.5341
389.9752
404.8980
488.3074
0.2000000 0.2000000 0.2000000
198.4783
260.9209
344.0425
355.8862
426.9436
492.0920
0.2000000 0.2000000 0.3000000
260.1002
278.0018
309.2344
318.9724
464.5944
473.1834
0.2000000 0.2000000 0.4000000
214.6278
273.1195
330.3282
344.4913
438.5211
488.8690
0.2000000 0.2000000 -0.5000000
164.8208
231.1236
360.9818
386.9060
401.5322
491.5969
0.2000000 0.3000000 0.0000000
189.6825
259.2937
362.2187
437.4191
443.7092
447.4204
0.2000000 0.3000000 0.1000000
193.6005
275.1258
378.3453
399.1478
445.3337
481.6986
0.2000000 0.3000000 0.2000000
209.2269
304.0941
350.3255
382.6450
463.6485
500.3360
0.2000000 0.3000000 0.3000000
253.4013
270.8450
350.5719
358.7067
487.8874
493.0418
0.2000000 0.3000000 0.4000000
218.2877
305.6887
340.5048
377.4813
471.1403
500.4757
0.2000000 0.3000000 -0.5000000
196.2641
283.5214
380.3763
389.0279
448.2209
489.8079
0.2000000 0.4000000 0.0000000
239.5760
303.9442
381.2818
401.1846
453.6463
480.3505
0.2000000 0.4000000 0.1000000
237.3828
317.0688
383.0301
400.2732
474.4961
483.5673
0.2000000 0.4000000 0.2000000
233.5942
320.9055
364.5854
411.2821
488.2179
505.7052
0.2000000 0.4000000 0.3000000
255.6762
269.5062
385.3401
392.3922
504.1772
506.9490
0.2000000 0.4000000 0.4000000
235.6325
308.8445
368.6932
407.7720
493.3257
508.2508
0.2000000 0.4000000 -0.5000000
235.8557
322.8890
374.9169
407.0163
478.1649
490.4377
0.3000000 0.3000000 0.0000000
241.8811
265.1224
390.4380
418.7264
445.9138
478.0890
0.3000000 0.3000000 0.1000000
237.2345
281.0171
386.3581
406.2559
462.3303
495.7447
0.3000000 0.3000000 0.2000000
237.0094
311.2539
349.7490
392.7680
489.7800
517.7251
0.3000000 0.3000000 0.3000000
268.3102
283.6225
354.9677
364.2000
511.9866
515.8927
0.3000000 0.3000000 0.4000000
241.6620
315.3791
340.4470
385.7261
497.2867
519.5201
0.3000000 0.3000000 -0.5000000
235.7141
289.1791
378.3939
404.0854
469.4033
503.8334
P = 2001.9400	V = 99.1777	E = -655.25970769000000	S_el = 0.00000261103000
0.0000000 0.0000000 0.0000000
0.0000
0.0000
0.0000
349.6576
349.6576
613.8890
0.0000000 0.0000000 0.1000000
70.0956
70.0957
170.9536
336.6233
336.6233
587.0717
0.0000000 0.0000000 0.2000000
152.8711
152.8711
302.3145
302.4056
335.1393
535.5323
0.0000000 0.0000000 0.3000000
231.3437
231.3437
249.8348
249.8348
454.6221
477.1855
0.0000000 0.0000000 0.4000000
176.1779
176.1779
289.7606
289.7606
374.3944
521.0437
0.0000000 0.0000000 -0.5000000
92.2588
92.2588
218.7023
328.8925
328.8925
573.2164
0.0000000 0.1000000 0.0000000
27.9565
82.6928
160.7747
358.5098
370.1077
598.8894
0.0000000 0.1000000 0.1000000
106.4364
112.9384
220.9504
346.6524
358.2321
576.2981
0.0000000 0.1000000 0.2000000
179.1036
184.5347
314.5563
323.3761
347.0342
530.9281
0.0000000 0.1000000 0.3000000
248.1368
252.7747
265.0746
270.0183
453.8386
475.1506
0.0000000 0.1000000 0.4000000
199.1183
204.4840
302.5104
310.0046
381.2251
517.3277
0.0000000 0.1000000 -0.5000000
129.2731
129.7548
253.8654
339.4990
350.7013
564.4480
0.0000000 0.2000000 0.0000000
87.2449
156.5390
300.5957
379.6205
418.8468
560.4592
0.0000000 0.2000000 0.1000000
132.7509
179.5733
334.8001
370.1124
405.8170
551.3424
0.0000000 0.2000000 0.2000000
210.2981
230.3807
342.4856
362.6519
403.9189
527.3327
0.0000000 0.2000000 0.3000000
280.9482
284.7817
298.0851
300.2626
470.4796
485.9138
0.0000000 0.2000000 0.4000000
230.6191
245.9526
332.1112
345.9481
423.7007
517.8676
0.0000000 0.2000000 -0.5000000
154.2171
192.1862
353.2370
363.4295
396.9772
546.0270
0.0000000 0.3000000 0.0000000
170.1557
213.7662
401.3513
406.3447
473.4155
514.0811
0.0000000 0.3000000 0.1000000
187.3425
232.5442
394.9108
427.7723
447.7914
534.1965
0.0000000 0.3000000 0.2000000
228.5013
274.7379
371.5478
385.4424
478.4868
542.5674
0.0000000 0.3000000 0.3000000
290.3259
311.9727
320.2627
333.2049
514.7771
523.1504
0.0000000 0.3000000 0.4000000
243.3998
287.7930
361.0285
366.9222
489.6322
539.4589
0.0000000 0.3000000 -0.5000000
196.9711
242.9525
389.7659
426.7165
448.3118
539.4777
0.0000000 0.4000000 0.0000000
250.5852
255.4223
421.6351
470.3909
474.2765
516.5322
0.0000000 0.4000000 0.1000000
257.5159
264.2292
413.7465
444.6769
495.5663
545.3819
0.0000000 0.4000000 0.2000000
265.9206
300.7829
390.3347
395.8003
532.4910
569.3517
0.0000000 0.4000000 0.3000000
307.0894
325.6127
344.7557
356.2162
558.5648
563.5783
0.0000000 0.4000000 0.4000000
272.9244
313.0433
377.3579
382.0243
541.0912
570.3028
0.0000000 0.4000000 -0.5000000
258.4903
272.6652
408.9629
432.9900
506.0848
554.9595
0.0000000 -0.5000000 0.0000000
267.5402
322.7335
433.3545
444.0013
503.9137
540.7189
0.0000000 -0.5000000 0.1000000
277.6904
313.2680
424.2368
434.9316
524.2725
561.6486
0.0000000 -0.5000000 0.2000000
301.3933
311.0050
400.0005
402.4747
559.2948
589.5839
0.0000000 -0.5000000 0.3000000
328.0567
343.5169
355.8160
367.3254
584.9300
589.3033
0.0000000 -0.5000000 0.4000000
303.5860
323.3601
387.1147
392.4777
567.8016
592.4355
0.0000000 -0.5000000 -0.5000000
284.6684
308.5718
418.8747
428.5446
534.1054
571.2390
0.1000000 0.1000000 0.0000000
48.8719
116.2981
221.2741
367.0568
387.7050
585.0086
0.1000000 0.1000000 0.1000000
115.2724
142.4733
266.2166
356.2570
376.0908
566.7290
0.1000000 0.1000000 0.2000000
198.0744
201.0498
325.7674
339.2731
364.7205
528.0628
0.1000000 0.1000000 0.3000000
262.5442
265.3741
279.6436
283.6918
456.7187
476.2623
0.1000000 0.1000000 0.4000000
217.3490
219.5833
314.4381
325.0178
393.0968
515.6521
0.1000000 0.1000000 -0.5000000
140.1429
156.8751
290.8764
349.6251
368.3686
556.9651
0.1000000 0.2000000 0.0000000
102.0333
182.0963
317.0545
396.1191
427.0322
549.0191
0.1000000 0.2000000 0.1000000
137.9492
204.7461
347.3933
390.4107
412.0990
544.5948
0.1000000 0.2000000 0.2000000
206.6535
251.3601
356.5010
365.6279
419.6064
527.4498
0.1000000 0.2000000 0.3000000
274.6069
288.2880
311.2547
318.4256
477.1493
490.8652
0.1000000 0.2000000 0.4000000
226.0676
264.9457
345.9157
349.8396
436.4021
519.3563
0.1000000 0.2000000 -0.5000000
156.1253
216.7022
359.7464
389.4614
402.2967
541.4261
0.1000000 0.3000000 0.0000000
176.2112
239.1687
381.2778
441.5485
474.5390
503.8009
0.1000000 0.3000000 0.1000000
188.8992
259.3001
394.4093
435.2595
455.5885
529.3761
0.1000000 0.3000000 0.2000000
221.3616
298.1873
376.2276
392.6830
484.0933
541.0196
0.1000000 0.3000000 0.3000000
277.4767
296.2370
347.1010
356.5334
516.6331
524.2079
0.1000000 0.3000000 0.4000000
234.2836
308.0073
360.0984
382.7658
493.9072
538.6239
0.1000000 0.3000000 -0.5000000
196.1338
269.6808
396.0119
423.9925
460.2650
535.7515
0.1000000 0.4000000 0.0000000
253.3688
275.8755
416.1539
463.5125
479.4611
516.0361
0.1000000 0.4000000 0.1000000
251.0915
294.8084
416.2158
440.5637
499.7426
539.5553
0.1000000 0.4000000 0.2000000
254.4193
328.5213
379.3181
418.0434
530.4349
563.1413
0.1000000 0.4000000 0.3000000
289.3185
305.8950
374.2219
384.0469
554.1420
558.6372
0.1000000 0.4000000 0.4000000
259.7112
335.0673
366.3324
409.3824
538.2387
564.3324
0.1000000 0.4000000 -0.5000000
250.7413
303.9667
409.8512
435.0868
507.8302
548.7028
0.2000000 0.2000000 0.0000000
151.0151
215.2223
370.1531
417.9441
459.8379
521.1464
0.2000000 0.2000000 0.1000000
170.7698
235.9633
385.1311
421.1935
438.9306
533.3665
0.2000000 0.2000000 0.2000000
216.9156
278.3974
369.7182
383.2627
463.9114
536.0208
0.2000000 0.2000000 0.3000000
279.7595
297.9758
329.4565
339.1838
503.4759
512.8949
0.2000000 0.2000000 0.4000000
232.8055
290.4796
356.1100
369.2528
475.7105
531.8099
0.2000000 0.2000000 -0.5000000
181.7779
246.9246
385.6952
419.3649
436.5373
536.6877
0.2000000 0.3000000 0.0000000
204.9532
275.7151
387.6872
475.1504
481.1093
484.6918
0.2000000 0.3000000 0.1000000
211.2193
294.7421
405.8844
434.3671
483.9140
524.6351
0.2000000 0.3000000 0.2000000
227.9836
325.3827
380.8571
410.6129
504.6326
544.6096
0.2000000 0.3000000 0.3000000
272.7082
291.0080
374.8093
383.1432
529.3656
534.9168
0.2000000 0.3000000 0.4000000
236.5877
327.3295
368.6852
404.5855
512.0883
544.2158
0.2000000 0.3000000 -0.5000000
214.6221
304.0362
410.5361
421.4568
487.7732
533.5756
0.2000000 0.4000000 0.0000000
258.3991
325.1038
409.5546
438.4750
491.0997
520.8415
0.2000000 0.4000000 0.1000000
257.2989
340.9877
416.9529
432.2437
516.0670
526.4054
0.2000000 0.4000000 0.2000000
253.2947
345.9792
394.9503
443.2563
531.9517
550.6565
0.2000000 0.4000000 0.3000000
274.8772
289.5343
413.6666
421.0598
547.8606
550.7808
0.2000000 0.4000000 0.4000000
254.6956
333.1850
397.7934
438.9693
536.9784
552.9841
0.2000000 0.4000000 -0.5000000
256.1298
347.5021
408.5768
439.2736
520.6357
534.1957
0.3000000 0.3000000 0.0000000
260.0612
282.9891
418.0743
457.7033
483.3028
519.3992
0.3000000 0.3000000 0.1000000
256.4008
302.1562
416.8830
440.3000
503.3704
540.3006
0.3000000 0.3000000 0.2000000
256.8713
334.3017
378.9437
422.8776
533.2643
564.0210
0.3000000 0.3000000 0.3000000
288.7903
304.8925
380.4107
390.0615
556.2405
560.4940
0.3000000 0.3000000 0.4000000
261.2336
338.3642
368.2051
414.7020
540.8673
565.4805
0.3000000 0.3000000 -0.5000000
255.3747
311.1945
409.5338
436.9423
511.2889
549.2268
P = 2501.7900	V = 94.8736	E = -655.19420285000000	S_el = 0.00000244411000
0.0000000 0.0000000 0.0000000
0.0000
0.0000
0.0000
368.1040
368.1040
658.6231
0.0000000 0.0000000 0.1000000
77.0317
77.0317
182.0358
354.9606
354.9606
630.3718
0.0000000 0.0000000 0.2000000
162.4999
162.4999
318.6217
318.8329
356.9910
574.7284
0.0000000 0.0000000 0.3000000
243.1513
243.1513
262.3513
262.3513
485.4628
509.8595
0.0000000 0.0000000 0.4000000
185.9354
185.9354
305.3837
305.3837
398.2884
558.8953
0.0000000 0.0000000 -0.5000000
99.9501
99.9501
232.1139
347.1071
347.1071
615.8485
0.0000000 0.1000000 0.0000000
33.0621
85.9130
171.2924
377.2670
390.0986
642.9914
0.0000000 0.1000000 0.1000000
115.1132
120.4753
236.6173
365.4841
378.4798
619.2547
0.0000000 0.1000000 0.2000000
189.5851
196.4655
331.3642
341.9144
370.7208
570.1064
0.0000000 0.1000000 0.3000000
260.4428
266.3219
278.0723
284.2615
485.0515
508.0406
0.0000000 0.1000000 0.4000000
209.6540
216.4560
318.6690
327.5973
406.4604
555.1875
0.0000000 0.1000000 -0.5000000
138.4061
138.8641
271.1574
358.2619
370.9411
606.8291
0.0000000 0.2000000 0.0000000
95.8817
163.1832
320.6564
399.4175
443.0836
602.6778
0.0000000 0.2000000 0.1000000
145.1853
189.6315
358.4738
390.3281
430.8053
593.1370
0.0000000 0.2000000 0.2000000
225.7666
243.0537
360.8832
385.8916
432.2681
566.3309
0.0000000 0.2000000 0.3000000
296.7069
299.8063
314.0142
316.8485
502.9958
519.6440
0.0000000 0.2000000 0.4000000
246.0461
258.6026
349.7371
367.9746
452.7787
555.6945
0.0000000 0.2000000 -0.5000000
167.5980
203.1829
376.9028
384.7695
422.1903
587.4618
0.0000000 0.3000000 0.0000000
182.3708
224.0464
424.8233
432.1225
503.2642
553.7293
0.0000000 0.3000000 0.1000000
202.4886
245.6960
416.6732
457.4497
479.8593
573.8208
0.0000000 0.3000000 0.2000000
246.2131
290.1578
392.7023
411.8929
512.4830
581.8258
0.0000000 0.3000000 0.3000000
309.8171
331.1971
337.8606
350.1091
550.2564
559.2565
0.0000000 0.3000000 0.4000000
261.0863
303.1435
382.4918
390.7805
523.7963
578.0266
0.0000000 0.3000000 -0.5000000
213.0593
256.9409
411.5492
456.6106
480.9054
579.2859
0.0000000 0.4000000 0.0000000
264.5691
270.9205
444.6829
504.1856
509.6960
552.9112
0.0000000 0.4000000 0.1000000
274.7890
280.3118
437.4146
477.0563
531.6064
585.2143
0.0000000 0.4000000 0.2000000
284.8148
318.8576
414.5104
421.9286
570.6835
610.5920
0.0000000 0.4000000 0.3000000
327.6776
347.1440
363.6720
375.6115
597.7483
603.1379
0.0000000 0.4000000 0.4000000
291.8816
331.0745
401.9913
405.5085
579.4274
611.2303
0.0000000 0.4000000 -0.5000000
276.3852
289.4528
432.8730
464.4046
542.7598
595.4869
0.0000000 -0.5000000 0.0000000
283.8677
341.2136
459.3267
475.1320
540.6489
581.2069
0.0000000 -0.5000000 0.1000000
295.8787
332.4706
449.8705
464.9954
562.4057
603.9628
0.0000000 -0.5000000 0.2000000
321.2872
330.9978
425.1908
427.9168
599.5729
632.9796
0.0000000 -0.5000000 0.3000000
349.2297
365.3981
376.6684
388.5505
626.7428
631.4992
0.0000000 -0.5000000 0.4000000
323.5339
343.3463
412.3747
416.0819
608.4026
635.6365
0.0000000 -0.5000000 -0.5000000
303.4539
328.1229
444.4445
457.9241
572.7556
613.9790
0.1000000 0.1000000 0.0000000
55.3452
121.0687
235.7868
386.2604
409.1013
628.4797
0.1000000 0.1000000 0.1000000
125.4241
151.0584
285.0638
375.7119
397.9759
609.3179
0.1000000 0.1000000 0.2000000
210.6298
213.2297
343.2253
359.4383
390.1809
567.1942
0.1000000 0.1000000 0.3000000
275.7202
279.6136
293.6919
299.1862
488.3237
509.3895
0.1000000 0.1000000 0.4000000
229.5612
232.1087
331.1727
344.2803
419.6571
553.4992
0.1000000 0.1000000 -0.5000000
151.2392
166.4428
311.1104
369.0799
390.3198
599.0609
0.1000000 0.2000000 0.0000000
111.5619
190.5619
337.0308
418.4085
451.8765
590.6075
0.1000000 0.2000000 0.1000000
150.8929
216.5037
369.8434
414.3859
437.7730
585.9581
0.1000000 0.2000000 0.2000000
222.0697
265.4491
376.6146
388.9977
449.2560
566.3520
0.1000000 0.2000000 0.3000000
290.8041
303.7204
328.8931
335.1524
510.1224
524.9049
0.1000000 0.2000000 0.4000000
241.3281
278.8931
366.1837
371.1527
466.5753
557.1601
0.1000000 0.2000000 -0.5000000
169.9133
229.3628
381.9283
414.7981
428.3063
582.4849
0.1000000 0.3000000 0.0000000
189.0367
251.3988
403.4457
469.3691
505.1376
542.6072
0.1000000 0.3000000 0.1000000
204.0463
274.5368
417.4766
465.0106
487.9884
568.4923
0.1000000 0.3000000 0.2000000
238.2455
315.4410
400.6676
417.3792
518.7168
580.1111
0.1000000 0.3000000 0.3000000
295.2283
314.3632
366.7120
376.2068
552.3557
560.4625
0.1000000 0.3000000 0.4000000
250.9535
324.9379
384.2688
405.7246
528.6145
577.0901
0.1000000 0.3000000 -0.5000000
212.0239
285.7634
419.0882
453.8066
493.4615
575.1569
0.1000000 0.4000000 0.0000000
269.4777
291.4277
440.0852
498.5769
512.3242
552.2297
0.1000000 0.4000000 0.1000000
268.0292
313.2710
441.9417
471.5328
535.8884
578.8350
0.1000000 0.4000000 0.2000000
272.2030
348.7138
404.7988
444.5428
568.6348
603.8897
0.1000000 0.4000000 0.3000000
307.8151
324.9844
396.3886
406.5608
593.0572
597.8641
0.1000000 0.4000000 0.4000000
277.3282
354.9558
390.9776
434.7889
576.5233
604.7915
0.1000000 0.4000000 -0.5000000
268.1252
323.1854
436.3539
464.7921
544.6521
588.6910
0.2000000 0.2000000 0.0000000
162.6397
225.6737
392.3866
443.4309
488.0035
561.3641
0.2000000 0.2000000 0.1000000
185.2734
249.5244
407.6490
449.2936
469.2378
573.3379
0.2000000 0.2000000 0.2000000
233.6098
294.2229
391.9277
408.2131
496.8966
574.9780
0.2000000 0.2000000 0.3000000
297.4379
315.6642
347.8098
357.4396
538.1800
548.3031
0.2000000 0.2000000 0.4000000
249.3298
306.1600
378.4246
391.9879
508.8936
569.9682
0.2000000 0.2000000 -0.5000000
197.1351
261.3700
407.7189
448.0293
467.8835
576.6522
0.2000000 0.3000000 0.0000000
219.3492
290.7596
410.2643
507.5485
514.4676
518.9718
0.2000000 0.3000000 0.1000000
227.2486
312.5512
430.2681
465.4004
518.3786
562.7369
0.2000000 0.3000000 0.2000000
244.9901
344.5618
407.7623
435.5896
541.0509
583.7732
0.2000000 0.3000000 0.3000000
290.2278
309.1364
396.6260
405.0914
566.2192
572.1000
0.2000000 0.3000000 0.4000000
253.2787
346.5431
393.9209
428.8260
548.4740
582.9583
0.2000000 0.3000000 -0.5000000
231.2017
322.5976
436.5453
450.7675
523.0184
572.3163
0.2000000 0.4000000 0.0000000
275.6934
344.2794
434.4419
471.7588
524.2321
556.7899
0.2000000 0.4000000 0.1000000
275.2222
362.5134
446.5836
460.7593
552.8761
564.3324
0.2000000 0.4000000 0.2000000
271.0641
368.1940
421.9565
471.6393
570.6376
590.2743
0.2000000 0.4000000 0.3000000
292.3629
307.6470
439.0058
446.6806
586.4807
589.5151
0.2000000 0.4000000 0.4000000
272.0109
354.7855
423.7974
466.7306
575.5876
592.4404
0.2000000 0.4000000 -0.5000000
274.2996
369.5963
438.1437
467.8475
558.2567
572.8038
0.3000000 0.3000000 0.0000000
276.5570
299.1515
442.3052
492.2779
516.4646
556.0190
0.3000000 0.3000000 0.1000000
273.5678
321.2214
443.2798
470.8392
539.7124
579.7037
0.3000000 0.3000000 0.2000000
274.6852
354.9613
404.5573
449.7125
571.7007
604.8844
0.3000000 0.3000000 0.3000000
307.1712
323.8703
403.1540
413.1574
595.3789
599.9287
0.3000000 0.3000000 0.4000000
278.8477
358.7936
392.8295
440.5530
579.3941
606.0745
0.3000000 0.3000000 -0.5000000
272.9385
331.0027
436.5567
466.3851
548.3339
589.3146
P = 3000.9300	V = 91.2893	E = -655.12744466000000	S_el = 0.00000231979000
0.0000000 0.0000000 0.0000000
0.0000
0.0000
0.0000
384.9038
384.9038
698.5499
0.0000000 0.0000000 0.1000000
83.8197
83.8197
191.9439
371.6102
371.6102
669.0966
0.0000000 0.0000000 0.2000000
171.6713
171.6713
333.4021
333.6525
376.4175
609.8579
0.0000000 0.0000000 0.3000000
253.9323
253.9323
273.6966
273.6966
513.0351
539.0737
0.0000000 0.0000000 0.4000000
195.1334
195.1334
319.4749
319.4749
419.5800
592.8353
0.0000000 0.0000000 -0.5000000
107.4725
107.4725
244.0660
363.6154
363.6154
654.0183
0.0000000 0.1000000 0.0000000
38.1722
89.0761
181.0851
394.3242
408.3072
682.4461
0.0000000 0.1000000 0.1000000
123.2373
127.7257
250.9172
382.5792
396.8710
657.7153
0.0000000 0.1000000 0.2000000
199.4009
207.6014
346.6435
358.6363
391.9943
605.2498
0.0000000 0.1000000 0.3000000
271.6761
278.7168
289.8781
297.2246
513.0965
537.5706
0.0000000 0.1000000 0.4000000
219.4800
227.5838
333.2948
343.5192
429.1173
589.1857
0.0000000 0.1000000 -0.5000000
146.7908
147.7185
286.8244
375.2747
389.2981
644.7999
0.0000000 0.2000000 0.0000000
104.6547
169.5397
339.1900
417.3517
465.1300
640.6399
0.0000000 0.2000000 0.1000000
156.7087
199.0839
380.0951
408.6552
453.4762
630.6451
0.0000000 0.2000000 0.2000000
239.9547
254.7490
377.6436
406.8221
457.9767
601.3997
0.0000000 0.2000000 0.3000000
310.6113
314.0631
327.9525
332.5307
532.4634
550.1653
0.0000000 0.2000000 0.4000000
260.2483
270.2355
365.6894
387.9772
479.1349
589.7884
0.0000000 0.2000000 -0.5000000
179.8752
213.4573
397.8627
404.6949
445.0180
624.6473
0.0000000 0.3000000 0.0000000
194.0784
233.6260
445.1493
456.5098
530.4395
589.3527
0.0000000 0.3000000 0.1000000
216.4253
257.8626
436.4547
484.3483
508.6334
609.5131
0.0000000 0.3000000 0.2000000
262.4131
304.2583
411.4502
436.0968
543.2281
617.1668
0.0000000 0.3000000 0.3000000
327.7363
348.1645
354.4480
365.4190
582.3895
591.9316
0.0000000 0.3000000 0.4000000
277.3462
317.1486
401.1295
413.1381
554.7068
612.8097
0.0000000 0.3000000 -0.5000000
227.7382
269.8347
431.3996
483.3614
510.3788
615.1012
0.0000000 0.4000000 0.0000000
277.1981
285.2732
465.4155
534.4200
541.6482
585.7098
0.0000000 0.4000000 0.1000000
290.4253
295.0476
458.6618
506.0531
564.0616
621.0173
0.0000000 0.4000000 0.2000000
301.9351
335.3108
435.5625
446.0817
605.0197
647.6176
0.0000000 0.4000000 0.3000000
346.4041
366.6597
380.7603
393.1176
633.0180
638.7357
0.0000000 0.4000000 0.4000000
309.1124
347.4545
423.4735
427.3569
613.9052
648.0058
0.0000000 0.4000000 -0.5000000
292.5401
304.8126
454.2431
492.6621
575.7485
631.8729
0.0000000 -0.5000000 0.0000000
298.7150
357.6680
481.6742
503.7051
573.4855
617.4988
0.0000000 -0.5000000 0.1000000
312.4645
349.6130
472.3393
492.2163
596.5293
641.8813
0.0000000 -0.5000000 0.2000000
339.1244
349.1464
447.2866
451.1128
635.6098
671.8526
0.0000000 -0.5000000 0.3000000
368.1927
384.9556
395.4506
407.6543
664.1865
669.2869
0.0000000 -0.5000000 0.4000000
341.4310
361.4502
434.7551
437.4618
644.7327
674.3390
0.0000000 -0.5000000 -0.5000000
320.5768
345.5888
466.9621
484.4829
607.3283
652.2715
0.1000000 0.1000000 0.0000000
61.9275
125.7123
249.2554
403.7082
428.5823
667.4482
0.1000000 0.1000000 0.1000000
134.8651
159.2298
302.3008
393.3783
417.8476
647.4851
0.1000000 0.1000000 0.2000000
221.9516
224.8249
359.1460
377.6781
413.1017
602.3248
0.1000000 0.1000000 0.3000000
287.5766
292.7518
306.4336
313.4172
516.8337
539.2344
0.1000000 0.1000000 0.4000000
240.5586
243.9935
346.3709
361.7159
443.6264
587.5332
0.1000000 0.1000000 -0.5000000
161.4838
175.4984
329.5051
386.7402
410.2246
636.7982
0.1000000 0.2000000 0.0000000
121.1691
198.6463
355.2924
438.7705
474.4370
628.0503
0.1000000 0.2000000 0.1000000
162.8909
227.5087
390.0144
436.5188
460.9543
623.1027
0.1000000 0.2000000 0.2000000
236.2046
278.4286
394.6196
410.3442
476.1391
601.3567
0.1000000 0.2000000 0.3000000
305.5831
317.6502
345.1526
350.5021
540.0272
555.7351
0.1000000 0.2000000 0.4000000
255.3761
291.7178
384.0730
390.9741
493.9323
591.2576
0.1000000 0.2000000 -0.5000000
182.5572
241.1424
401.7118
438.2737
451.7019
619.3553
0.1000000 0.3000000 0.0000000
201.3582
262.8217
423.4164
495.0268
532.5226
577.6969
0.1000000 0.3000000 0.1000000
217.9986
288.6138
438.3075
491.7458
517.3772
603.7463
0.1000000 0.3000000 0.2000000
253.7065
331.2281
422.2920
440.0842
550.0101
615.2919
0.1000000 0.3000000 0.3000000
311.5093
330.8383
384.6896
394.1939
584.6878
593.2537
0.1000000 0.3000000 0.4000000
266.3033
340.4718
405.8158
426.7785
559.9978
611.7684
0.1000000 0.3000000 -0.5000000
226.5349
300.5607
439.9397
480.5811
523.5046
610.6137
0.1000000 0.4000000 0.0000000
284.3298
305.7283
461.6436
530.0925
541.9557
584.8584
0.1000000 0.4000000 0.1000000
283.4192
330.1629
464.7374
499.6281
568.4127
614.1464
0.1000000 0.4000000 0.2000000
288.3720
367.0841
427.5275
468.5479
602.9700
640.4609
0.1000000 0.4000000 0.3000000
324.6889
342.3100
416.5338
427.0056
628.0786
633.1563
0.1000000 0.4000000 0.4000000
293.4094
373.0317
413.0803
457.8283
610.9480
641.1344
0.1000000 0.4000000 -0.5000000
283.8707
340.7223
459.7942
491.7959
577.7567
624.5895
0.2000000 0.2000000 0.0000000
173.9609
235.4894
412.4044
466.8242
513.7826
597.4057
0.2000000 0.2000000 0.1000000
198.6614
262.1075
427.8580
474.9673
496.5860
609.3232
0.2000000 0.2000000 0.2000000
248.8924
308.7362
411.5676
431.1609
526.7541
610.0558
0.2000000 0.2000000 0.3000000
313.6065
331.6436
364.7022
374.1814
569.6365
580.3691
0.2000000 0.2000000 0.4000000
264.5331
320.5262
398.1398
413.0653
538.9425
604.3965
0.2000000 0.2000000 -0.5000000
211.1713
274.7123
427.7344
473.7496
496.2821
612.6047
0.2000000 0.3000000 0.0000000
233.0228
304.7373
430.6784
536.0100
544.6313
550.8265
0.2000000 0.3000000 0.1000000
241.9814
328.9187
452.3401
493.1495
549.5777
597.0673
0.2000000 0.3000000 0.2000000
260.5788
362.1007
431.8496
458.2215
573.9022
618.9702
0.2000000 0.3000000 0.3000000
306.3748
325.7208
416.5603
425.1115
599.4973
605.6584
0.2000000 0.3000000 0.4000000
268.6785
363.9476
416.7980
450.8268
581.3093
617.8255
0.2000000 0.3000000 -0.5000000
246.3318
339.5957
459.4902
477.5568
554.8564
607.1441
0.2000000 0.4000000 0.0000000
291.7756
361.9165
456.9083
501.8573
554.0596
589.2047
0.2000000 0.4000000 0.1000000
291.5596
382.1493
472.9548
486.6057
585.9981
598.4233
0.2000000 0.4000000 0.2000000
287.2885
388.2227
446.3161
497.2313
605.4018
625.7745
0.2000000 0.4000000 0.3000000
308.5226
324.2921
462.0342
469.9472
621.2075
624.3318
0.2000000 0.4000000 0.4000000
287.9342
374.2892
447.3688
491.8205
610.2939
627.8283
0.2000000 0.4000000 -0.5000000
290.7895
389.7032
464.5628
493.5800
592.0931
607.4208
0.3000000 0.3000000 0.0000000
291.7382
314.0035
464.1010
523.3835
546.3483
589.0089
0.3000000 0.3000000 0.1000000
289.1577
338.6438
466.6203
498.5935
572.3899
615.1158
0.3000000 0.3000000 0.2000000
290.8791
373.7419
427.4313
473.9793
606.2275
641.5475
0.3000000 0.3000000 0.3000000
323.9466
341.1070
423.8091
434.1174
630.5806
635.3887
0.3000000 0.3000000 0.4000000
294.9248
377.2926
414.9889
463.9631
614.0155
642.5245
0.3000000 0.3000000 -0.5000000
288.8422
349.0568
460.4841
493.1180
581.6148
625.2948
P = 5001.7100	V = 81.0010	E = -654.85360745000000	S_el = 0.00000204786000
0.0000000 0.0000000 0.0000000
0.0000
0.0000
0.0000
441.6337
441.6337
828.2417
0.0000000 0.0000000 0.1000000
109.3142
109.3142
224.1154
427.3866
427.3866
795.2982
0.0000000 0.0000000 0.2000000
205.1368
205.1368
382.8882
382.7015
438.8097
724.7404
0.0000000 0.0000000 0.3000000
290.7377
290.7377
311.8585
311.8585
602.8080
634.2221
0.0000000 0.0000000 0.4000000
228.2412
228.2412
366.1696
366.1696
488.4738
703.9096
0.0000000 0.0000000 -0.5000000
135.7917
135.7917
282.6732
418.6927
418.6927
778.6312
0.0000000 0.1000000 0.0000000
58.9362
101.3086
215.4108
451.7774
469.8055
811.1876
0.0000000 0.1000000 0.1000000
151.7705
154.3820
299.1586
439.8296
458.5190
783.3131
0.0000000 0.1000000 0.2000000
234.2570
246.7031
398.2794
413.9415
461.4518
720.3454
0.0000000 0.1000000 0.3000000
310.0267
321.0448
329.7707
341.0385
605.2802
634.5130
0.0000000 0.1000000 0.4000000
254.2300
266.5033
382.1052
396.5661
503.4539
700.7545
0.0000000 0.1000000 -0.5000000
175.2924
180.7753
338.9851
432.0822
450.6236
768.9058
0.0000000 0.2000000 0.0000000
140.0197
193.0839
403.2965
477.3556
539.3854
765.7347
0.0000000 0.2000000 0.1000000
196.5113
232.6742
453.1757
469.8904
529.3880
753.5773
0.0000000 0.2000000 0.2000000
288.2262
295.1006
434.5289
475.5520
543.7840
716.6890
0.0000000 0.2000000 0.3000000
354.9707
366.1389
371.4837
389.0075
630.8709
651.8114
0.0000000 0.2000000 0.4000000
309.0148
310.2232
419.3325
454.6479
567.0987
702.3773
0.0000000 0.2000000 -0.5000000
221.4861
249.5625
464.7087
474.7964
521.0898
746.4474
0.0000000 0.3000000 0.0000000
237.2248
267.4880
507.6270
544.1601
622.8005
705.8102
0.0000000 0.3000000 0.1000000
264.0461
299.9890
503.4863
574.0449
602.5984
727.1662
0.0000000 0.3000000 0.2000000
317.2235
352.0855
472.1162
517.7040
645.3739
733.6060
0.0000000 0.3000000 0.3000000
389.3011
402.2333
413.9517
416.6876
689.6111
700.8074
0.0000000 0.3000000 0.4000000
332.9888
364.5446
458.7859
491.9967
657.5488
727.8471
0.0000000 0.3000000 -0.5000000
277.0743
314.1298
498.9965
570.1343
608.1248
732.9097
0.0000000 0.4000000 0.0000000
319.3136
335.1766
534.7154
632.9147
646.9894
694.2941
0.0000000 0.4000000 0.1000000
342.4495
345.2044
529.2275
600.0144
671.1517
738.7357
0.0000000 0.4000000 0.2000000
358.9914
390.6327
500.9370
529.3355
717.9404
769.0921
0.0000000 0.4000000 0.3000000
409.4963
431.9985
437.6477
451.3084
749.4119
756.1508
0.0000000 0.4000000 0.4000000
366.9473
402.3987
490.1334
503.7893
727.4157
768.8831
0.0000000 0.4000000 -0.5000000
345.9753
356.8947
524.5421
584.9559
684.3240
751.2300
0.0000000 -0.5000000 0.0000000
348.7552
410.9555
549.6930
601.0033
680.4252
736.3920
0.0000000 -0.5000000 0.1000000
368.4263
405.3268
543.3068
582.5091
707.8699
765.8831
0.0000000 -0.5000000 0.2000000
397.5449
409.8434
516.8270
529.3506
753.1198
798.8601
0.0000000 -0.5000000 0.3000000
430.3057
448.7799
457.5885
470.7876
786.5842
792.8087
0.0000000 -0.5000000 0.4000000
400.1609
421.8238
506.4896
508.8681
763.2627
800.8474
0.0000000 -0.5000000 -0.5000000
378.2458
402.4076
538.6763
572.3375
720.0069
777.4106
0.1000000 0.1000000 0.0000000
89.2535
143.3967
296.2095
462.3844
494.3267
795.0980
0.1000000 0.1000000 0.1000000
167.6545
188.8265
360.6793
452.5723
484.4274
772.3287
0.1000000 0.1000000 0.2000000
259.3951
266.9529
413.2075
438.3400
488.2988
717.5295
0.1000000 0.1000000 0.3000000
327.0365
338.2099
349.4279
362.1783
611.2394
637.8357
0.1000000 0.1000000 0.4000000
276.9918
287.0146
397.5332
419.6949
523.0026
699.4877
0.1000000 0.1000000 -0.5000000
196.6032
207.9744
391.1287
445.8284
476.7128
760.2495
0.1000000 0.2000000 0.0000000
159.4464
228.4158
417.3985
507.8248
550.2048
751.7389
0.1000000 0.2000000 0.1000000
204.3559
266.3492
456.3410
512.8435
537.8439
744.9286
0.1000000 0.2000000 0.2000000
284.2554
323.0473
453.8175
482.2313
565.8375
716.5553
0.1000000 0.2000000 0.3000000
355.8189
364.2197
401.2079
403.0964
640.0408
658.5895
0.1000000 0.2000000 0.4000000
303.6079
335.7536
441.1608
460.0997
585.2804
704.0022
0.1000000 0.2000000 -0.5000000
225.3666
282.2413
465.9489
519.7923
528.4818
740.2130
0.1000000 0.3000000 0.0000000
246.9170
303.2776
489.7843
583.9770
622.2204
693.6938
0.1000000 0.3000000 0.1000000
265.7647
337.2221
507.7538
579.8249
615.2683
720.0726
0.1000000 0.3000000 0.2000000
306.1312
384.8152
491.4936
517.6734
653.8578
731.1470
0.1000000 0.3000000 0.3000000
367.2951
386.4465
446.0799
455.3533
692.4489
702.4122
0.1000000 0.3000000 0.4000000
318.9991
393.7050
475.5524
498.5285
664.2994
726.3847
0.1000000 0.3000000 -0.5000000
275.3834
351.2241
509.8622
568.0788
623.2071
727.2680
0.1000000 0.4000000 0.0000000
335.5804
354.9371
533.7372
633.5169
639.9231
692.8052
0.1000000 0.4000000 0.1000000
334.9688
387.4899
538.2697
593.3065
675.4267
730.2716
0.1000000 0.4000000 0.2000000
342.5855
428.7875
501.3072
548.5189
715.8377
760.3627
0.1000000 0.4000000 0.3000000
381.9199
400.5624
484.2446
495.6368
743.6186
749.5327
0.1000000 0.4000000 0.4000000
347.8125
434.0107
485.2667
534.8021
724.2430
760.5186
0.1000000 0.4000000 -0.5000000
336.2523
399.8975
534.8695
582.1773
686.5588
742.3219
0.2000000 0.2000000 0.0000000
216.7452
270.6266
478.7643
546.7269
602.1144
714.8678
0.2000000 0.2000000 0.1000000
244.6410
305.8858
494.4678
562.0900
586.8508
727.7951
0.2000000 0.2000000 0.2000000
300.6802
358.2089
474.5625
509.4648
626.0969
725.6534
0.2000000 0.2000000 0.3000000
368.7375
385.0170
422.8038
431.4405
674.7484
687.3454
0.2000000 0.2000000 0.4000000
316.6500
369.5014
461.1111
486.1986
639.0649
718.3290
0.2000000 0.2000000 -0.5000000
258.4634
320.6998
495.3707
557.9923
590.5747
730.8104
0.2000000 0.3000000 0.0000000
282.6363
353.7161
498.9783
626.1623
644.6855
661.9553
0.2000000 0.3000000 0.1000000
292.2606
384.9188
526.5902
583.2166
653.2414
710.3605
0.2000000 0.3000000 0.2000000
313.5368
421.7288
510.3610
533.7034
682.5389
734.6157
0.2000000 0.3000000 0.3000000
362.1776
382.3310
484.2205
492.8716
709.9564
716.9459
0.2000000 0.3000000 0.4000000
321.7307
422.4129
492.9226
524.4675
690.0498
732.7341
0.2000000 0.3000000 -0.5000000
297.2363
397.3262
532.7916
568.0608
660.2359
721.5979
0.2000000 0.4000000 0.0000000
348.0866
422.5613
532.4092
601.6186
652.6456
696.3896
0.2000000 0.4000000 0.1000000
346.5760
448.4417
558.2387
573.0476
695.1476
710.3549
0.2000000 0.4000000 0.2000000
342.0656
454.6191
526.7518
581.8589
719.5883
741.8283
0.2000000 0.4000000 0.3000000
364.6098
381.5198
539.4394
548.0509
735.6126
738.9594
0.2000000 0.4000000 0.4000000
342.4871
439.1256
526.0139
575.1727
724.4385
743.7579
0.2000000 0.4000000 -0.5000000
345.8105
457.2782
550.4928
578.5683
703.3443
720.6555
0.3000000 0.3000000 0.0000000
343.9553
365.0376
536.8655
625.5509
645.0890
697.9863
0.3000000 0.3000000 0.1000000
341.3348
397.6450
541.4915
591.5217
679.7807
731.5134
0.3000000 0.3000000 0.2000000
345.1654
436.7478
501.8199
554.5829
719.6047
761.6858
0.3000000 0.3000000 0.3000000
380.8896
399.1360
493.1452
504.3930
746.5941
752.2041
0.3000000 0.3000000 0.4000000
349.3087
439.2618
487.8290
541.9856
727.8356
762.1794
0.3000000 0.3000000 -0.5000000
341.7306
409.8563
537.2072
582.4711
690.8527
743.2523
weight
   0.0000000   0.0000000   0.0000000   0.0020000
   0.0000000   0.0000000   0.1000000   0.0040000
   0.0000000   0.0000000   0.2000000   0.0040000
   0.0000000   0.0000000   0.3000000   0.0040000
   0.0000000   0.0000000   0.4000000   0.0040000
   0.0000000   0.0000000  -0.5000000   0.0020000
   0.0000000   0.1000000   0.0000000   0.0120000
   0.0000000   0.1000000   0.1000000   0.0240000
   0.0000000   0.1000000   0.2000000   0.0240000
   0.0000000   0.1000000   0.3000000   0.0240000
   0.0000000   0.1000000   0.4000000   0.0240000
   0.0000000   0.1000000  -0.5000000   0.0120000
   0.0000000   0.2000000   0.0000000   0.0120000
   0.0000000   0.2000000   0.1000000   0.0240000
   0.0000000   0.2000000   0.2000000   0.0240000
   0.0000000   0.2000000   0.3000000   0.0240000
   0.0000000   0.2000000   0.4000000   0.0240000
   0.0000000   0.2000000  -0.5000000   0.0120000
   0.0000000   0.3000000   0.0000000   0.0120000
   0.0000000   0.3000000   0.1000000   0.0240000
   0.0000000   0.3000000   0.2000000   0.0240000
   0.0000000   0.3000000   0.3000000   0.0240000
   0.0000000   0.3000000   0.4000000   0.0240000
   0.0000000   0.3000000  -0.5000000   0.0120000
   0.0000000   0.4000000   0.0000000   0.0120000
   0.0000000   0.4000000   0.1000000   0.0240000
   0.0000000   0.4000000   0.2000000   0.0240000
   0.0000000   0.4000000   0.3000000   0.0240000
   0.0000000   0.4000000   0.4000000   0.0240000
   0.0000000   0.4000000  -0.5000000   0.0120000
   0.0000000  -0.5000000   0.0000000   0.0060000
   0.0000000  -0.5000000   0.1000000   0.0120000
   0.0000000  -0.5000000   0.2000000   0.0120000
   0.0000000  -0.5000000   0.3000000   0.0120000
   0.0000000  -0.5000000   0.4000000   0.0120000
   0.0000000  -0.5000000  -0.5000000   0.0060000
   0.1000000   0.1000000   0.0000000   0.0120000
   0.1000000   0.1000000   0.1000000   0.0240000
   0.1000000   0.1000000   0.2000000   0.0240000
   0.1000000   0.1000000   0.3000000   0.0240000
   0.1000000   0.1000000   0.4000000   0.0240000
   0.1000000   0.1000000  -0.5000000   0.0120000
   0.1000000   0.2000000   0.0000000   0.0240000
   0.1000000   0.2000000   0.1000000   0.0480000
   0.1000000   0.2000000   0.2000000   0.0480000
   0.1000000   0.2000000   0.3000000   0.0480000
   0.1000000   0.2000000   0.4000000   0.0480000
   0.1000000   0.2000000  -0.5000000   0.0240000
   0.1000000   0.3000000   0.0000000   0.0240000
   0.1000000   0.3000000   0.1000000   0.0480000
   0.1000000   0.3000000   0.2000000   0.0480000
   0.1000000   0.3000000   0.3000000   0.0480000
   0.1000000   0.3000000   0.4000000   0.0480000
   0.1000000   0.3000000  -0.5000000   0.0240000
   0.1000000   0.4000000   0.0000000   0.0240000
   0.1000000   0.4000000   0.1000000   0.0480000
   0.1000000   0.4000000   0.2000000   0.0480000
   0.1000000   0.4000000   0.3000000   0.0480000
   0.1000000   0.4000000   0.4000000   0.0480000
   0.1000000   0.4000000  -0.5000000   0.0240000
   0.2000000   0.2000000   0.0000000   0.0120000
   0.2000000   0.2000000   0.1000000   0.0240000
   0.2000000   0.2000000   0.2000000   0.0240000
   0.2000000   0.2000000   0.3000000   0.0240000
   0.2000000   0.2000000   0.4000000   0.0240000
   0.2000000   0.2000000  -0.5000000   0.0120000
   0.2000000   0.3000000   0.0000000   0.0240000
   0.2000000   0.3000000   0.1000000   0.0480000
   0.2000000   0.3000000   0.2000000   0.0480000
   0.2000000   0.3000000   0.3000000   0.0480000
   0.2000000   0.3000000   0.4000000   0.0480000
   0.2000000   0.3000000  -0.5000000   0.0240000
   0.2000000   0.4000000   0.0000000   0.0120000
   0.2000000   0.4000000   0.1000000   0.0240000
   0.2000000   0.4000000   0.2000000   0.0240000
   0.2000000   0.4000000   0.3000000   0.0240000
   0.2000000   0.4000000   0.4000000   0.0240000
   0.2000000   0.4000000  -0.5000000   0.0120000
   0.3000000   0.3000000   0.0000000   0.0120000
   0.3000000   0.3000000   0.1000000   0.0240000
   0.3000000   0.3000000   0.2000000   0.0240000
   0.3000000   0.3000000   0.3000000   0.0240000
   0.3000000   0.3000000   0.4000000   0.0240000
   0.3000000   0.3000000  -0.5000000   0.0120000