Number of volumes (nv), q-vectors (nq), normal mode (np), formula units(nm)
10 84 6 1
P = 16.5700	V = 138.4189	E = -655.44648228000000	S_el = 0.00001041700000
0.0000000 0.0000000 0.0000000
0.0000
0.0000
0.0000
220.6513
220.6513
306.2367
0.0000000 0.0000000 0.1000000
53.4112
53.4112
104.7297
214.5211
214.5211
301.0386
0.0000000 0.0000000 0.2000000
99.8755
99.8755
192.8543
192.8543
192.7874
287.9669
0.0000000 0.0000000 0.3000000
142.9573
142.9573
155.9314
155.9314
251.6410
263.5695
0.0000000 0.0000000 0.4000000
113.2401
113.2401
182.7713
182.7713
214.3208
282.2147
0.0000000 0.0000000 -0.5000000
68.4654
68.4654
134.3662
209.7112
209.7112
297.7344
0.0000000 0.1000000 0.0000000
46.4068
61.4151
104.5351
227.3526
235.8840
301.8557
0.0000000 0.1000000 0.1000000
82.0900
83.1547
138.1943
221.8517
229.3458
297.7733
0.0000000 0.1000000 0.2000000
119.4753
124.1770
202.3695
204.5696
207.8269
287.3415
0.0000000 0.1000000 0.3000000
157.6141
162.4661
169.2268
174.0673
255.6151
266.1968
0.0000000 0.1000000 0.4000000
131.1756
136.0360
193.3068
198.4533
222.8802
282.5055
0.0000000 0.1000000 -0.5000000
93.4461
96.3393
158.1653
217.5289
224.4212
295.1881
0.0000000 0.2000000 0.0000000
92.7529
112.1584
189.2611
241.4430
265.9352
290.0988
0.0000000 0.2000000 0.1000000
111.1757
126.1421
206.4809
237.2248
255.1512
292.3708
0.0000000 0.2000000 0.2000000
148.0594
155.0959
222.1084
229.8653
243.0432
292.0457
0.0000000 0.2000000 0.3000000
186.0874
186.3835
195.7670
196.8854
274.4527
281.0208
0.0000000 0.2000000 0.4000000
159.7906
164.8687
215.0082
220.3702
254.0597
290.1363
0.0000000 0.2000000 -0.5000000
121.7421
134.3682
216.9284
233.8671
248.5460
292.9616
0.0000000 0.3000000 0.0000000
136.7361
144.6541
241.7123
252.6810
275.1974
286.1300
0.0000000 0.3000000 0.1000000
141.8420
156.1641
249.4460
254.2593
260.2683
297.0811
0.0000000 0.3000000 0.2000000
160.2975
181.4988
234.4205
237.0716
280.3478
305.2317
0.0000000 0.3000000 0.3000000
190.8662
201.2840
209.0634
216.4483
299.3255
302.6768
0.0000000 0.3000000 0.4000000
168.7641
190.0374
224.5285
231.9210
287.3824
305.7465
0.0000000 0.3000000 -0.5000000
145.9414
163.1892
246.8747
252.2178
262.8018
300.4638
0.0000000 0.4000000 0.0000000
157.3664
174.0612
257.0404
259.5171
262.1915
288.9049
0.0000000 0.4000000 0.1000000
167.6359
170.0369
250.8152
253.5610
276.0784
298.6478
0.0000000 0.4000000 0.2000000
170.6824
191.2047
229.6051
243.6772
297.7570
310.8425
0.0000000 0.4000000 0.3000000
190.4453
199.7384
216.9560
224.2770
310.7766
312.5191
0.0000000 0.4000000 0.4000000
174.6023
199.3020
221.1023
238.4914
302.9836
312.5937
0.0000000 0.4000000 -0.5000000
168.7792
174.0507
246.0880
250.9091
282.9910
303.1497
0.0000000 -0.5000000 0.0000000
157.1591
200.0365
247.4658
256.7640
265.1899
279.3534
0.0000000 -0.5000000 0.1000000
166.9049
188.2777
242.5531
253.7035
280.7855
291.5875
0.0000000 -0.5000000 0.2000000
177.0484
190.0084
226.2952
242.7470
301.3924
307.8383
0.0000000 -0.5000000 0.3000000
189.5096
197.9243
215.9672
223.3113
310.9110
311.8225
0.0000000 -0.5000000 0.4000000
177.9313
198.1141
218.5194
237.4370
305.5283
310.3807
0.0000000 -0.5000000 -0.5000000
173.1103
183.2897
238.9652
251.3685
287.9510
297.5095
0.1000000 0.1000000 0.0000000
65.6658
85.5528
142.2381
233.3906
247.7515
297.7061
0.1000000 0.1000000 0.1000000
94.2535
102.3947
166.3597
228.4178
240.3760
295.1336
0.1000000 0.1000000 0.2000000
134.7063
136.3629
210.7452
217.0146
218.9085
287.8679
0.1000000 0.1000000 0.3000000
169.7520
173.5966
180.9577
185.3654
261.1342
270.2704
0.1000000 0.1000000 0.4000000
145.5953
148.0864
202.5403
208.7908
233.1306
284.0451
0.1000000 0.1000000 -0.5000000
107.4487
111.9023
181.1321
224.5038
235.0562
293.4614
0.1000000 0.2000000 0.0000000
103.2329
131.0291
199.0359
249.9301
269.3319
286.4649
0.1000000 0.2000000 0.1000000
116.7108
143.4963
215.7765
246.1531
256.2215
291.5722
0.1000000 0.2000000 0.2000000
148.1641
170.2071
229.6826
232.0624
250.6121
293.7593
0.1000000 0.2000000 0.3000000
183.7051
192.3919
203.1670
209.3351
278.9720
284.7933
0.1000000 0.2000000 0.4000000
159.1500
179.0467
220.0900
225.9353
260.5882
292.4683
0.1000000 0.2000000 -0.5000000
125.2243
150.9837
225.5524
243.2964
249.0433
293.0612
0.1000000 0.3000000 0.0000000
142.5929
164.4080
236.6318
265.7883
271.7269
284.5329
0.1000000 0.3000000 0.1000000
144.4827
175.2269
248.5097
254.7963
266.6260
295.3141
0.1000000 0.3000000 0.2000000
158.1926
198.6628
228.3684
250.3690
280.5124
304.0688
0.1000000 0.3000000 0.3000000
185.5148
195.3332
225.1028
232.0893
298.6488
301.8869
0.1000000 0.3000000 0.4000000
165.4500
206.0163
219.5845
245.6970
287.1330
304.7184
0.1000000 0.3000000 -0.5000000
147.0487
181.7559
246.9446
253.7357
267.5478
298.8948
0.1000000 0.4000000 0.0000000
176.6729
178.2041
252.7363
256.1177
270.9509
289.1035
0.1000000 0.4000000 0.1000000
169.4642
189.5871
244.8679
261.0977
277.9037
296.6442
0.1000000 0.4000000 0.2000000
168.1249
210.9515
222.8047
257.7565
295.2172
308.2315
0.1000000 0.4000000 0.3000000
185.0050
193.4622
234.6011
241.1562
307.9697
309.7571
0.1000000 0.4000000 0.4000000
171.2078
213.9483
218.5721
253.5883
300.2314
309.9380
0.1000000 0.4000000 -0.5000000
167.6502
195.4415
239.0106
262.3888
282.4056
300.7978
0.2000000 0.2000000 0.0000000
129.1663
149.5173
229.3043
257.5490
277.4967
281.8447
0.2000000 0.2000000 0.1000000
135.0348
161.1441
242.2749
253.9380
260.7559
294.3954
0.2000000 0.2000000 0.2000000
155.5906
186.2342
230.5117
242.5171
272.8890
301.6138
0.2000000 0.2000000 0.3000000
186.8423
196.9398
214.4685
221.8410
293.7484
297.6558
0.2000000 0.2000000 0.4000000
164.4938
194.5205
221.2120
237.0431
280.4390
301.7511
0.2000000 0.2000000 -0.5000000
139.7614
168.1429
245.8648
251.1858
257.9852
297.5683
0.2000000 0.3000000 0.0000000
158.6182
188.0294
239.6053
263.3457
278.6310
284.2770
0.2000000 0.3000000 0.1000000
156.3003
197.1703
249.5522
252.8534
278.9318
293.6316
0.2000000 0.3000000 0.2000000
161.7969
216.6278
225.0933
262.2735
285.9477
304.1926
0.2000000 0.3000000 0.3000000
183.0960
192.0450
241.5917
247.7578
301.0152
303.6512
0.2000000 0.3000000 0.4000000
166.7460
212.9383
226.6963
259.0629
291.3184
305.3459
0.2000000 0.3000000 -0.5000000
156.4437
202.8533
241.9090
259.5673
278.7341
297.7483
0.2000000 0.4000000 0.0000000
184.6224
213.0950
246.1560
248.5815
276.4548
294.6601
0.2000000 0.4000000 0.1000000
176.9665
220.9898
237.9794
260.5559
287.3140
293.1968
0.2000000 0.4000000 0.2000000
171.2537
215.2967
239.5896
274.5833
292.3008
302.1481
0.2000000 0.4000000 0.3000000
181.9054
188.7421
258.9333
264.0937
302.3469
304.0227
0.2000000 0.4000000 0.4000000
172.4780
207.0737
245.7651
272.9362
295.6406
304.0077
0.2000000 0.4000000 -0.5000000
174.0567
225.6130
232.3478
267.2058
289.7390
294.6988
0.3000000 0.3000000 0.0000000
180.0362
182.2526
252.9793
254.1271
271.8378
289.2381
0.3000000 0.3000000 0.1000000
171.9256
193.5254
243.2054
262.1841
279.0242
296.0188
0.3000000 0.3000000 0.2000000
168.9806
214.4019
221.5389
260.0417
295.4611
307.6788
0.3000000 0.3000000 0.3000000
184.4295
192.6168
237.5826
243.9795
307.7527
309.4428
0.3000000 0.3000000 0.4000000
171.5552
212.8210
221.8296
256.0512
300.3102
309.4552
0.3000000 0.3000000 -0.5000000
169.6508
199.2670
237.4995
263.9718
283.1986
300.1214
P = 216.1900	V = 130.1411	E = -655.44236069000000	S_el = 0.00000934668000
0.0000000 0.0000000 0.0000000
0.0000
0.0000
0.0000
243.7392
243.7392
358.3370
0.0000000 0.0000000 0.1000000
61.7176
61.7176
117.6662
236.9626
236.9626
350.5267
0.0000000 0.0000000 0.2000000
114.3433
114.3433
213.6140
213.6140
217.4603
331.3903
0.0000000 0.0000000 0.3000000
160.9999
160.9999
174.4720
174.4720
285.7028
299.7558
0.0000000 0.0000000 0.4000000
128.7203
128.7203
203.1347
203.1347
241.6256
323.7071
0.0000000 0.0000000 -0.5000000
78.5725
78.5725
150.3689
231.8574
231.8574
345.7046
0.0000000 0.1000000 0.0000000
51.3830
68.2925
117.4984
251.1827
261.1813
353.0603
0.0000000 0.1000000 0.1000000
91.9758
92.9922
155.6063
245.0098
253.9389
346.5300
0.0000000 0.1000000 0.2000000
134.6220
139.7068
223.8576
229.1643
232.1368
330.5036
0.0000000 0.1000000 0.3000000
176.3312
182.0033
188.4964
194.2640
290.1627
302.7143
0.0000000 0.1000000 0.4000000
147.3109
152.7089
214.3883
220.7204
251.3125
323.8902
0.0000000 0.1000000 -0.5000000
104.9025
107.5697
177.5637
240.3737
248.6806
342.5218
0.0000000 0.2000000 0.0000000
102.4960
124.8425
213.5790
267.1563
296.4497
338.8026
0.0000000 0.2000000 0.1000000
122.8038
140.1321
232.7545
262.2157
285.3353
338.5828
0.0000000 0.2000000 0.2000000
164.3145
172.8244
245.4497
257.3364
274.0612
334.3823
0.0000000 0.2000000 0.3000000
206.9399
207.6051
217.5432
220.2029
311.0604
318.9984
0.0000000 0.2000000 0.4000000
177.7979
183.1478
237.9245
246.8714
286.5630
331.3171
0.0000000 0.2000000 -0.5000000
134.4552
149.0059
243.6427
259.0446
278.3131
338.0152
0.0000000 0.3000000 0.0000000
151.0352
161.4387
275.4429
279.9831
318.7260
324.2165
0.0000000 0.3000000 0.1000000
156.7833
173.4969
276.7127
288.2788
297.3080
339.5539
0.0000000 0.3000000 0.2000000
178.4749
201.0769
262.3892
265.4608
317.7094
348.2837
0.0000000 0.3000000 0.3000000
214.4460
226.9580
230.2644
240.7319
340.0530
344.1444
0.0000000 0.3000000 0.4000000
188.2409
210.3643
253.8247
257.0196
325.6549
348.5251
0.0000000 0.3000000 -0.5000000
161.4218
180.8442
273.7703
287.0747
297.9174
343.3235
0.0000000 0.4000000 0.0000000
176.6096
192.7743
287.0310
300.0008
301.4570
331.0025
0.0000000 0.4000000 0.1000000
187.1764
189.2089
282.4045
288.0105
316.2671
343.0403
0.0000000 0.4000000 0.2000000
191.4271
212.6099
262.3837
269.8938
340.4046
356.9064
0.0000000 0.4000000 0.3000000
215.0207
225.3996
241.7128
249.5673
355.9437
358.1576
0.0000000 0.4000000 0.4000000
196.1316
221.4211
251.0459
265.5804
346.3609
358.7263
0.0000000 0.4000000 -0.5000000
188.2146
193.8445
278.7177
282.4890
323.6480
348.1552
0.0000000 -0.5000000 0.0000000
177.7107
222.6447
284.0117
288.1396
307.4270
325.5886
0.0000000 -0.5000000 0.1000000
187.6789
211.4409
278.7072
283.4185
323.8750
338.6773
0.0000000 -0.5000000 0.2000000
200.4673
212.5069
257.7707
271.8923
347.0213
356.5484
0.0000000 -0.5000000 0.3000000
215.1965
224.6550
241.6758
249.8389
359.0605
360.4175
0.0000000 -0.5000000 0.4000000
201.6541
221.3174
248.2911
266.5047
351.9242
359.2596
0.0000000 -0.5000000 -0.5000000
194.0440
206.5966
274.7107
280.3767
331.5409
345.0109
0.1000000 0.1000000 0.0000000
72.6438
95.1418
160.0761
257.9895
274.9290
348.0474
0.1000000 0.1000000 0.1000000
104.4923
114.2037
187.2940
252.3265
266.8526
343.1328
0.1000000 0.1000000 0.2000000
150.6162
152.4640
233.0014
242.1384
246.0230
330.7446
0.1000000 0.1000000 0.3000000
189.1582
193.9277
201.2633
206.8450
296.2755
307.1920
0.1000000 0.1000000 0.4000000
162.4788
165.4268
224.3780
232.6402
262.8730
325.3202
0.1000000 0.1000000 -0.5000000
119.0472
124.7949
203.5388
248.0938
261.1815
340.1134
0.1000000 0.2000000 0.0000000
114.0130
145.7174
224.3558
277.5788
300.7438
334.3853
0.1000000 0.2000000 0.1000000
128.7284
159.2086
242.6819
273.2793
287.5528
336.8677
0.1000000 0.2000000 0.2000000
164.6410
188.7090
255.5474
258.6626
283.0656
335.9828
0.1000000 0.2000000 0.3000000
205.2564
214.0212
226.5346
232.4230
316.2831
323.3200
0.1000000 0.2000000 0.4000000
177.0300
198.3106
247.0241
250.1519
294.2564
333.7437
0.1000000 0.2000000 -0.5000000
138.0918
167.2221
253.1078
270.3038
279.8330
337.3983
0.1000000 0.3000000 0.0000000
157.4523
183.2092
266.8184
298.4035
315.9530
321.3319
0.1000000 0.3000000 0.1000000
159.5349
194.5983
277.7022
290.4271
301.6425
337.5901
0.1000000 0.3000000 0.2000000
175.7300
220.0896
258.2862
277.9501
318.5065
347.1686
0.1000000 0.3000000 0.3000000
207.9195
218.9580
250.4185
257.8495
339.6849
343.6069
0.1000000 0.3000000 0.4000000
184.1481
228.0180
248.1235
273.0326
325.9085
347.6067
0.1000000 0.3000000 -0.5000000
162.4324
201.4480
277.6512
285.6867
303.2859
341.6348
0.1000000 0.4000000 0.0000000
195.6453
199.5977
285.4388
296.2179
308.4459
330.7275
0.1000000 0.4000000 0.1000000
188.3129
211.5877
279.5815
293.2805
317.9337
340.5068
0.1000000 0.4000000 0.2000000
187.8159
234.8571
252.6871
288.1283
337.7780
353.8471
0.1000000 0.4000000 0.3000000
208.1504
217.7914
262.1065
269.3310
352.8683
355.0827
0.1000000 0.4000000 0.4000000
191.5829
239.6007
246.0956
283.4988
343.4571
355.6578
0.1000000 0.4000000 -0.5000000
186.5418
217.7896
272.4941
293.7705
323.1527
345.3040
0.2000000 0.2000000 0.0000000
142.6160
166.5564
258.7437
287.5733
316.0065
324.1424
0.2000000 0.2000000 0.1000000
149.0145
178.8671
271.0560
285.4461
296.1413
337.1689
0.2000000 0.2000000 0.2000000
172.8315
206.3078
259.4349
269.4844
309.0308
344.1861
0.2000000 0.2000000 0.3000000
209.2280
220.3594
238.5187
246.2737
333.4780
338.2194
0.2000000 0.2000000 0.4000000
183.0294
215.3040
249.3551
263.0847
317.5083
343.9166
0.2000000 0.2000000 -0.5000000
154.2554
186.2442
273.1901
284.6203
291.7805
340.4143
0.2000000 0.3000000 0.0000000
175.2271
209.5621
270.7711
306.7191
314.5104
321.3483
0.2000000 0.3000000 0.1000000
172.7624
219.1526
282.7467
286.6973
315.6921
335.8841
0.2000000 0.3000000 0.2000000
179.7770
240.0322
255.5801
291.5130
326.0116
347.9280
0.2000000 0.3000000 0.3000000
205.3757
215.6115
269.1598
275.7597
343.4783
346.6317
0.2000000 0.3000000 0.4000000
185.6764
238.8161
253.9149
288.1246
331.9942
349.0501
0.2000000 0.3000000 -0.5000000
173.0317
225.0712
277.4105
288.7707
316.3880
340.6504
0.2000000 0.4000000 0.0000000
204.6417
238.4361
280.0417
286.8540
316.2077
334.8848
0.2000000 0.4000000 0.1000000
196.5430
246.6280
272.1772
295.0255
328.6476
334.6694
0.2000000 0.4000000 0.2000000
190.9064
243.2175
268.4786
307.4250
335.2036
346.9708
0.2000000 0.4000000 0.3000000
204.3457
212.2565
290.1391
295.7893
347.0668
349.0208
0.2000000 0.4000000 0.4000000
192.6307
233.8682
275.1398
305.5687
339.1284
349.0602
0.2000000 0.4000000 -0.5000000
193.5042
251.1981
265.6625
301.2235
330.5193
337.9493
0.3000000 0.3000000 0.0000000
199.4632
204.2166
286.1074
293.6675
309.7613
331.1242
0.3000000 0.3000000 0.1000000
191.1588
216.1206
277.9565
294.5660
319.3276
340.0237
0.3000000 0.3000000 0.2000000
188.8381
238.7616
251.4311
290.9067
338.3620
353.4662
0.3000000 0.3000000 0.3000000
207.5312
216.8726
265.6741
272.7365
352.9300
355.0260
0.3000000 0.3000000 0.4000000
192.0338
239.7273
248.5764
286.4855
343.8626
355.3706
0.3000000 0.3000000 -0.5000000
188.8840
222.2138
270.7666
295.8093
324.2809
344.7664
P = 514.9400	V = 121.3918	E = -655.42327434000000	S_el = 0.00000828549000
0.0000000 0.0000000 0.0000000
0.0000
0.0000
0.0000
268.6800
268.6800
417.9787
0.0000000 0.0000000 0.1000000
68.4397
68.4397
132.8258
261.2289
261.2289
407.2961
0.0000000 0.0000000 0.2000000
127.1011
127.1011
235.7867
235.7867
246.1781
381.4029
0.0000000 0.0000000 0.3000000
178.7456
178.7456
193.1683
193.1683
325.1403
341.5764
0.0000000 0.0000000 0.4000000
142.7453
142.7453
224.6629
224.6629
273.3318
371.5940
0.0000000 0.0000000 -0.5000000
86.8167
86.8167
169.0763
255.7872
255.7872
400.8474
0.0000000 0.1000000 0.0000000
55.8322
74.6145
131.1685
276.9897
288.5733
411.5197
0.0000000 0.1000000 0.1000000
101.1950
102.6156
174.7517
270.1043
280.5864
402.3696
0.0000000 0.1000000 0.2000000
148.7766
154.8339
246.8504
254.6246
260.9326
380.1030
0.0000000 0.1000000 0.3000000
195.0771
201.7624
208.1528
214.9876
329.8141
344.6169
0.0000000 0.1000000 0.4000000
162.6180
168.9895
236.7367
244.3586
283.8632
371.4914
0.0000000 0.1000000 -0.5000000
115.2330
118.6563
199.2519
265.1068
274.9464
396.8590
0.0000000 0.2000000 0.0000000
111.8843
136.8256
239.5515
295.1522
329.7310
394.0448
0.0000000 0.2000000 0.1000000
135.0768
153.8011
261.4388
289.4395
318.0627
391.5631
0.0000000 0.2000000 0.2000000
182.2753
189.9974
270.5729
286.9970
308.7340
382.8669
0.0000000 0.2000000 0.3000000
228.3322
230.9934
239.3798
244.8541
352.3018
361.8956
0.0000000 0.2000000 0.4000000
197.1866
201.2079
262.4064
275.3935
322.9508
378.3419
0.0000000 0.2000000 -0.5000000
148.0005
163.4485
274.2388
285.2820
310.5745
389.8162
0.0000000 0.3000000 0.0000000
165.9646
177.9114
309.6937
312.3631
362.9294
371.1286
0.0000000 0.3000000 0.1000000
173.0145
191.1880
306.6318
325.9220
337.7953
388.4092
0.0000000 0.3000000 0.2000000
198.2414
221.7208
291.3647
298.3102
359.5705
397.2310
0.0000000 0.3000000 0.3000000
239.8261
253.3499
255.4207
265.2375
385.6813
390.6708
0.0000000 0.3000000 0.4000000
209.2271
231.8142
283.5002
286.7573
368.5125
396.9711
0.0000000 0.3000000 -0.5000000
178.3658
199.1076
303.2673
325.3130
337.1844
392.4464
0.0000000 0.4000000 0.0000000
196.2520
213.4635
320.1799
344.0753
346.4440
378.0700
0.0000000 0.4000000 0.1000000
207.7845
210.6699
315.9542
328.2749
361.3534
393.3564
0.0000000 0.4000000 0.2000000
214.4466
235.7653
296.9141
301.0686
388.5876
409.2536
0.0000000 0.4000000 0.3000000
241.9602
253.9629
268.1303
276.8954
406.8702
409.6468
0.0000000 0.4000000 0.4000000
219.8253
245.3224
284.9543
294.9042
395.3249
411.0469
0.0000000 0.4000000 -0.5000000
210.0935
214.8816
312.6595
320.4466
369.4098
399.2890
0.0000000 -0.5000000 0.0000000
199.2774
248.3013
321.9432
326.5970
354.6446
377.7436
0.0000000 -0.5000000 0.1000000
210.0537
237.6972
316.4552
319.8905
372.5788
392.3257
0.0000000 -0.5000000 0.2000000
226.8140
237.1869
293.8069
303.7913
398.9460
412.1828
0.0000000 -0.5000000 0.3000000
243.7748
254.4678
269.7221
278.7750
413.7380
415.6176
0.0000000 -0.5000000 0.4000000
228.1899
246.7150
282.6722
297.8219
404.6804
414.9932
0.0000000 -0.5000000 -0.5000000
216.7991
233.0209
312.3496
315.7194
380.9665
399.2561
0.1000000 0.1000000 0.0000000
79.0538
104.0677
178.9645
284.6821
304.4300
405.3811
0.1000000 0.1000000 0.1000000
115.1510
125.3267
210.1007
278.2766
295.5872
398.0532
0.1000000 0.1000000 0.2000000
166.1214
168.7803
256.8528
268.7628
277.0243
379.9386
0.1000000 0.1000000 0.3000000
208.8492
214.8661
222.1565
229.1651
336.2993
349.2931
0.1000000 0.1000000 0.4000000
179.0051
182.9874
247.5906
258.0685
296.5482
372.6638
0.1000000 0.1000000 -0.5000000
131.1851
136.8603
228.2686
273.6593
289.5098
393.6379
0.1000000 0.2000000 0.0000000
124.5338
159.8532
251.4210
307.7216
335.0960
388.6290
0.1000000 0.2000000 0.1000000
141.3671
174.8288
271.9846
303.0392
321.5118
388.8741
0.1000000 0.2000000 0.2000000
182.1115
207.6274
282.6854
288.3228
319.3429
384.2631
0.1000000 0.2000000 0.3000000
227.8723
236.4196
251.6611
256.5602
358.2208
366.7253
0.1000000 0.2000000 0.4000000
195.8230
218.0548
274.7273
277.5547
331.9418
380.7693
0.1000000 0.2000000 -0.5000000
151.7695
183.5271
282.6179
300.7159
313.2352
388.4031
0.1000000 0.3000000 0.0000000
172.9458
201.9614
298.8215
334.9602
360.8081
366.8359
0.1000000 0.3000000 0.1000000
175.7454
214.5904
309.0575
329.5684
341.1290
386.0427
0.1000000 0.3000000 0.2000000
194.5928
242.7657
290.9915
308.4780
361.2092
396.1258
0.1000000 0.3000000 0.3000000
231.7476
244.0849
277.6634
285.4992
385.7170
390.4488
0.1000000 0.3000000 0.4000000
204.0632
251.2972
279.6471
302.6798
369.4507
396.1529
0.1000000 0.3000000 -0.5000000
179.1089
221.9994
309.7806
322.3430
343.4735
390.4933
0.1000000 0.4000000 0.0000000
216.4251
221.6583
320.3510
341.2329
350.8196
377.3972
0.1000000 0.4000000 0.1000000
208.9984
235.1189
316.4341
330.7747
363.1780
390.1907
0.1000000 0.4000000 0.2000000
209.3099
260.7424
286.1048
321.8718
385.9549
405.6726
0.1000000 0.4000000 0.3000000
233.0575
244.0446
292.1188
300.0604
403.5200
406.2319
0.1000000 0.4000000 0.4000000
213.6212
266.7188
277.4388
316.5105
392.3256
407.5036
0.1000000 0.4000000 -0.5000000
207.3564
241.8620
309.1076
329.6369
369.1860
395.8355
0.2000000 0.2000000 0.0000000
156.3846
183.2762
290.1616
320.8461
356.2616
374.0322
0.2000000 0.2000000 0.1000000
163.9824
196.9136
301.7243
320.9846
334.6855
386.4835
0.2000000 0.2000000 0.2000000
191.3633
227.3499
289.8104
300.2150
349.5221
392.6483
0.2000000 0.2000000 0.3000000
233.0422
245.0964
264.3638
272.2918
377.9984
383.7457
0.2000000 0.2000000 0.4000000
202.7700
237.1001
279.4905
291.9459
359.0209
391.7149
0.2000000 0.2000000 -0.5000000
169.9085
204.9010
302.7608
321.3520
329.5860
389.6403
0.2000000 0.3000000 0.0000000
192.8092
231.5221
303.7235
352.3513
357.1182
363.2286
0.2000000 0.3000000 0.1000000
190.5726
242.1655
317.1905
325.6178
357.5167
383.8842
0.2000000 0.3000000 0.2000000
199.0782
265.0033
289.6152
323.5617
371.2443
397.5399
0.2000000 0.3000000 0.3000000
228.9836
240.6804
298.9941
306.0411
391.2337
394.9772
0.2000000 0.3000000 0.4000000
205.7784
265.7657
284.8308
319.8709
377.8596
398.5015
0.2000000 0.3000000 -0.5000000
191.0545
248.5323
314.8873
322.6363
359.1699
389.4163
0.2000000 0.4000000 0.0000000
226.3268
265.0786
316.1075
329.4958
360.4980
380.4916
0.2000000 0.4000000 0.1000000
217.9565
274.0608
310.9629
332.0867
375.2688
382.1709
0.2000000 0.4000000 0.2000000
212.1357
273.2258
301.2026
343.7630
383.9458
397.8744
0.2000000 0.4000000 0.3000000
228.1064
237.2882
324.2736
330.4558
397.5720
399.8309
0.2000000 0.4000000 0.4000000
214.1444
262.9694
307.7452
341.5889
388.4089
400.1409
0.2000000 0.4000000 -0.5000000
214.8246
278.7880
303.2642
338.3217
377.1409
387.0754
0.3000000 0.3000000 0.0000000
220.7798
226.9665
321.4582
338.0264
352.6032
378.2136
0.3000000 0.3000000 0.1000000
212.2744
240.3580
315.3794
331.7586
364.9624
389.8761
0.3000000 0.3000000 0.2000000
210.5056
265.1878
284.9069
325.2067
386.9666
405.5041
0.3000000 0.3000000 0.3000000
232.3675
243.0297
296.3742
304.1532
403.9320
406.4992
0.3000000 0.3000000 0.4000000
214.1738
268.0629
279.2797
320.1139
393.1426
407.4596
0.3000000 0.3000000 -0.5000000
210.0745
246.9899
307.5853
331.7801
370.7549
395.4588
P = 764.2400	V = 115.9289	E = -655.40093172000000	S_el = 0.00000766214000
0.0000000 0.0000000 0.0000000
0.0000
0.0000
0.0000
285.1919
285.1919
458.6766
0.0000000 0.0000000 0.1000000
72.1814
72.1814
143.2354
277.3117
277.3117
446.1110
0.0000000 0.0000000 0.2000000
134.5539
134.5539
250.3577
250.3577
265.9305
415.7333
0.0000000 0.0000000 0.3000000
189.8156
189.8156
205.0019
205.0019
352.3004
370.3370
0.0000000 0.0000000 0.4000000
151.0551
151.0551
238.7219
238.7219
295.1068
404.5367
0.0000000 0.0000000 -0.5000000
91.3984
91.3984
181.8809
271.6444
271.6444
438.6288
0.0000000 0.1000000 0.0000000
58.5500
78.3923
140.1903
294.0898
306.7244
451.3717
0.0000000 0.1000000 0.1000000
106.8159
108.6982
187.6371
286.7530
298.2760
440.5378
0.0000000 0.1000000 0.2000000
157.3731
164.2950
261.9818
271.0277
281.0418
414.1355
0.0000000 0.1000000 0.3000000
206.9048
214.3246
220.6857
228.2677
357.0343
373.3592
0.0000000 0.1000000 0.4000000
171.9702
179.1491
251.3604
259.8586
306.1268
404.2050
0.0000000 0.1000000 -0.5000000
121.3875
125.6726
213.9188
281.5142
292.3857
434.0838
0.0000000 0.2000000 0.0000000
117.8311
144.1302
256.7961
313.7422
351.8841
431.6080
0.0000000 0.2000000 0.1000000
143.2334
162.3591
280.7130
307.5480
339.8019
427.8588
0.0000000 0.2000000 0.2000000
194.2819
200.7679
287.1720
306.6413
332.2903
416.1434
0.0000000 0.2000000 0.3000000
242.0303
246.5175
253.3097
260.9640
380.3945
391.1361
0.0000000 0.2000000 0.4000000
209.8595
212.7138
278.5094
294.2588
347.6528
410.5965
0.0000000 0.2000000 -0.5000000
157.0167
172.5402
294.8408
302.7513
332.0218
425.3979
0.0000000 0.3000000 0.0000000
175.7490
188.2338
331.3405
335.2070
391.0544
404.5101
0.0000000 0.3000000 0.1000000
183.9214
202.5709
326.6020
351.2491
364.8569
422.0364
0.0000000 0.3000000 0.2000000
211.4977
235.2251
310.0619
320.9131
388.0203
430.7070
0.0000000 0.3000000 0.3000000
256.6486
270.1517
272.8442
281.0336
416.6372
422.2497
0.0000000 0.3000000 0.4000000
223.1916
245.8260
302.2999
307.5785
397.5998
430.0400
0.0000000 0.3000000 -0.5000000
189.7928
210.9463
322.9652
350.8243
363.8842
426.1900
0.0000000 0.4000000 0.0000000
208.9095
227.3123
342.3405
373.4532
377.2360
409.9416
0.0000000 0.4000000 0.1000000
221.3395
225.1702
337.8894
356.0807
391.9765
427.6645
0.0000000 0.4000000 0.2000000
229.9707
251.1777
319.1674
323.0405
421.3825
444.9765
0.0000000 0.4000000 0.3000000
259.9771
273.1458
285.5592
294.9846
441.4600
444.6238
0.0000000 0.4000000 0.4000000
235.7226
261.1942
307.6314
314.7143
428.6135
446.7093
0.0000000 0.4000000 -0.5000000
224.9128
228.7914
334.5651
347.0770
400.5274
434.1865
0.0000000 -0.5000000 0.0000000
213.4415
265.6099
346.2448
353.8798
386.6046
413.1958
0.0000000 -0.5000000 0.1000000
224.9832
255.4362
340.7071
345.7928
405.7025
428.9865
0.0000000 -0.5000000 0.2000000
244.6165
253.7813
318.0721
325.2970
434.3322
450.2092
0.0000000 -0.5000000 0.3000000
262.9755
274.4990
288.4289
298.0471
450.9520
453.1936
0.0000000 -0.5000000 0.4000000
246.0726
263.7417
306.0839
318.6221
440.6019
453.0424
0.0000000 -0.5000000 -0.5000000
232.0542
250.8932
336.6329
340.7725
414.6128
436.3566
0.1000000 0.1000000 0.0000000
83.0233
109.4543
191.4498
302.3883
324.0019
444.4297
0.1000000 0.1000000 0.1000000
122.1436
132.1511
225.4013
295.5165
314.6812
435.5947
0.1000000 0.1000000 0.2000000
175.7858
179.2476
272.5682
286.2014
298.3095
413.6898
0.1000000 0.1000000 0.3000000
221.3743
228.2848
235.6047
243.5896
363.6933
378.1034
0.1000000 0.1000000 0.4000000
189.3057
194.2039
262.8106
274.7945
319.4997
405.1765
0.1000000 0.1000000 -0.5000000
139.1069
144.2567
244.9272
290.6442
308.3385
430.3161
0.1000000 0.2000000 0.0000000
131.2387
168.5966
269.2665
327.8960
357.9775
425.4824
0.1000000 0.2000000 0.1000000
149.7557
184.7278
291.4051
323.1799
344.0273
424.5522
0.1000000 0.2000000 0.2000000
193.6434
219.7815
300.3416
308.3390
343.9911
417.3837
0.1000000 0.2000000 0.3000000
242.5533
250.8303
268.2173
272.3198
386.7545
396.2753
0.1000000 0.2000000 0.4000000
208.1176
230.7272
292.4716
296.2712
357.5315
412.9915
0.1000000 0.2000000 -0.5000000
160.8721
193.9172
301.9485
321.6113
335.4171
423.4673
0.1000000 0.3000000 0.0000000
183.1009
213.8369
319.6890
359.8558
389.2917
399.3227
0.1000000 0.3000000 0.1000000
186.5866
227.5481
329.7087
355.6974
368.1061
419.3234
0.1000000 0.3000000 0.2000000
207.1602
257.6416
312.6090
329.1772
390.2781
429.5791
0.1000000 0.3000000 0.3000000
247.3868
260.5170
295.7214
303.7752
416.9636
422.2475
0.1000000 0.3000000 0.4000000
217.2195
266.5408
300.6786
322.5107
399.0492
429.2675
0.1000000 0.3000000 -0.5000000
190.2981
235.4015
330.6000
347.4562
370.8848
423.9982
0.1000000 0.4000000 0.0000000
230.2982
235.9405
343.2067
371.6842
379.7051
409.0636
0.1000000 0.4000000 0.1000000
222.8558
250.6961
340.3706
356.7960
394.0292
424.0545
0.1000000 0.4000000 0.2000000
223.6862
277.9619
308.5741
344.6528
418.7825
441.0257
0.1000000 0.4000000 0.3000000
249.5182
261.3790
312.1548
320.5493
437.9328
440.9808
0.1000000 0.4000000 0.4000000
228.2720
284.4462
298.8024
338.7006
425.5818
442.8306
0.1000000 0.4000000 -0.5000000
221.3378
257.8559
333.2929
354.3385
400.5475
430.3028
0.2000000 0.2000000 0.0000000
165.3402
193.7501
310.7226
343.4106
382.4068
408.6935
0.2000000 0.2000000 0.1000000
173.9822
208.5152
321.8107
345.2045
360.4050
420.4549
0.2000000 0.2000000 0.2000000
203.7040
241.0774
309.4763
321.3009
377.0536
425.8209
0.2000000 0.2000000 0.3000000
248.6538
261.1847
281.4739
289.4345
408.2200
414.6623
0.2000000 0.2000000 0.4000000
215.8024
251.2968
299.1912
311.5244
387.2098
424.3689
0.2000000 0.2000000 -0.5000000
180.4035
216.9770
322.3501
345.8980
355.3017
423.4978
0.2000000 0.3000000 0.0000000
204.4086
245.6253
325.1904
381.9393
386.7557
392.0956
0.2000000 0.3000000 0.1000000
202.4882
257.2005
339.3854
352.2640
386.2489
416.6660
0.2000000 0.3000000 0.2000000
211.9209
281.4565
312.5599
345.0047
402.0865
431.3764
0.2000000 0.3000000 0.3000000
244.4616
257.1031
318.8200
326.1300
423.6685
427.8018
0.2000000 0.3000000 0.4000000
219.0411
283.1571
305.9914
341.0594
409.0878
432.1852
0.2000000 0.3000000 -0.5000000
203.1434
263.9317
339.0553
346.2311
388.5022
422.7147
0.2000000 0.4000000 0.0000000
240.7646
282.5026
339.7112
358.2507
390.3503
411.6897
0.2000000 0.4000000 0.1000000
232.3010
292.1999
337.2037
356.6459
407.0060
414.7553
0.2000000 0.4000000 0.2000000
226.2737
292.9419
323.5843
368.1672
417.2302
432.5498
0.2000000 0.4000000 0.3000000
243.6888
253.7171
347.0733
353.5912
431.8940
434.3448
0.2000000 0.4000000 0.4000000
228.3652
282.2284
329.7832
365.7516
421.9931
434.9046
0.2000000 0.4000000 -0.5000000
229.1327
297.1112
328.7506
363.0149
409.1335
420.5592
0.3000000 0.3000000 0.0000000
235.0217
241.7339
344.5932
368.0246
381.7946
410.2141
0.3000000 0.3000000 0.1000000
226.4178
256.4263
339.8697
357.4083
396.0965
423.8566
0.3000000 0.3000000 0.2000000
224.9911
282.7828
307.4498
348.3453
420.0909
441.0022
0.3000000 0.3000000 0.3000000
248.7727
260.2967
316.8842
325.1172
438.5883
441.4733
0.3000000 0.3000000 0.4000000
228.8865
286.4943
300.3545
342.7182
426.6850
442.9532
0.3000000 0.3000000 -0.5000000
224.3037
263.4702
332.0868
356.3876
402.4262
430.0344
P = 1012.8000	V = 111.4903	E = -655.37519121000000	S_el = 0.00000717855000
0.0000000 0.0000000 0.0000000
0.0000
0.0000
0.0000
299.4488
299.4488
494.2060
0.0000000 0.0000000 0.1000000
75.2532
75.2532
152.3073
291.2098
291.2098
480.0450
0.0000000 0.0000000 0.2000000
140.6983
140.6983
262.8926
262.8926
283.2196
445.8335
0.0000000 0.0000000 0.3000000
199.1234
199.1234
215.0028
215.0028
376.1535
395.5734
0.0000000 0.0000000 0.4000000
157.9157
157.9157
250.7827
250.7827
314.1509
433.4673
0.0000000 0.0000000 -0.5000000
95.1317
95.1317
193.0097
285.3489
285.3489
471.7100
0.0000000 0.1000000 0.0000000
60.8941
81.5179
148.0320
308.8537
322.3972
486.1601
0.0000000 0.1000000 0.1000000
111.5435
113.9063
198.8896
301.1440
313.5774
473.9161
0.0000000 0.1000000 0.2000000
164.5616
172.3136
275.0098
285.0103
298.8270
443.9856
0.0000000 0.1000000 0.3000000
216.8961
224.9824
231.3116
239.5631
380.9335
398.5742
0.0000000 0.1000000 0.4000000
179.7839
187.7262
263.9197
273.1942
325.6129
432.9392
0.0000000 0.1000000 -0.5000000
126.5171
131.6624
226.7110
295.7004
307.4786
466.6896
0.0000000 0.2000000 0.0000000
122.9733
150.2300
271.8057
329.7958
371.0531
464.3870
0.0000000 0.2000000 0.1000000
150.3758
169.6102
297.5623
323.2132
358.6144
459.6671
0.0000000 0.2000000 0.2000000
204.6670
209.9514
301.4931
323.6141
352.9428
445.3767
0.0000000 0.2000000 0.3000000
253.6716
259.8501
265.2224
274.7956
405.0216
416.7631
0.0000000 0.2000000 0.4000000
220.6561
222.6083
292.3753
310.5561
369.2784
438.9432
0.0000000 0.2000000 -0.5000000
164.8943
180.2556
312.5540
318.1626
350.6025
456.6382
0.0000000 0.3000000 0.0000000
184.2229
196.9695
349.5417
355.6256
414.8913
434.2396
0.0000000 0.3000000 0.1000000
193.4758
212.3223
343.8939
373.3029
388.3624
451.6226
0.0000000 0.3000000 0.2000000
223.0799
246.8460
326.0237
340.7491
412.9501
460.0816
0.0000000 0.3000000 0.3000000
271.2153
284.3199
288.1059
294.6649
443.7114
449.8660
0.0000000 0.3000000 0.4000000
235.3316
257.8601
318.1704
326.0442
423.0552
459.0381
0.0000000 0.3000000 -0.5000000
199.8125
221.1131
340.0342
372.9049
387.3111
455.8531
0.0000000 0.4000000 0.0000000
219.7714
239.3054
361.5060
398.9328
404.2008
437.7796
0.0000000 0.4000000 0.1000000
233.0761
237.7984
356.6948
380.4903
418.7794
457.7036
0.0000000 0.4000000 0.2000000
243.5085
264.5587
337.9942
342.6407
450.0748
476.2523
0.0000000 0.4000000 0.3000000
275.6187
289.7759
300.6260
310.5984
471.6757
475.1759
0.0000000 0.4000000 0.4000000
249.5521
274.9442
327.0624
332.1949
457.7108
477.9147
0.0000000 0.4000000 -0.5000000
237.8261
240.8668
353.2355
370.6284
427.7631
464.7443
0.0000000 -0.5000000 0.0000000
225.7112
280.5771
366.7999
378.1384
414.5085
444.1868
0.0000000 -0.5000000 0.1000000
238.0042
270.8080
361.2326
368.8402
434.6529
461.1011
0.0000000 -0.5000000 0.2000000
260.0913
268.2706
338.9379
344.1479
465.2495
483.4966
0.0000000 -0.5000000 0.3000000
279.6319
291.8597
304.6523
314.7338
483.4457
486.0058
0.0000000 -0.5000000 0.4000000
261.6057
278.5728
326.4068
336.6674
471.9659
486.3269
0.0000000 -0.5000000 -0.5000000
245.3795
266.3987
357.2079
363.0745
444.0150
468.8584
0.1000000 0.1000000 0.0000000
86.4507
113.9336
202.3019
317.6818
340.9075
478.5134
0.1000000 0.1000000 0.1000000
128.2146
137.9034
238.7648
310.4315
331.2051
468.4382
0.1000000 0.1000000 0.2000000
183.9415
188.2135
286.1093
301.1970
317.0275
443.3076
0.1000000 0.1000000 0.3000000
231.9902
239.6796
247.0876
255.9087
387.7350
403.3717
0.1000000 0.1000000 0.4000000
197.9787
203.7659
275.8971
289.2095
339.5937
433.7405
0.1000000 0.1000000 -0.5000000
145.9281
150.5063
259.4672
305.3484
324.6433
462.4599
0.1000000 0.2000000 0.0000000
137.0407
175.9550
284.6720
345.4644
377.7705
457.6371
0.1000000 0.2000000 0.1000000
157.1019
193.1636
308.1369
340.8924
363.4735
455.8499
0.1000000 0.2000000 0.2000000
203.6456
230.1665
315.4733
325.7744
365.6028
446.4817
0.1000000 0.2000000 0.3000000
255.1015
263.0927
282.4630
285.9028
411.7581
422.1633
0.1000000 0.2000000 0.4000000
218.7132
241.5310
307.5385
312.6999
379.9421
441.3021
0.1000000 0.2000000 -0.5000000
168.8314
202.7860
318.4975
340.1064
354.6030
454.2754
0.1000000 0.3000000 0.0000000
191.9021
223.9328
337.5369
381.7175
413.3908
428.3210
0.1000000 0.3000000 0.1000000
196.0667
238.6860
347.4770
378.3146
391.8242
448.5775
0.1000000 0.3000000 0.2000000
218.1093
270.4641
331.1475
347.3550
415.7654
458.9153
0.1000000 0.3000000 0.3000000
260.8461
274.5996
311.3584
319.5691
444.2949
450.0544
0.1000000 0.3000000 0.4000000
228.6190
279.6541
318.8307
339.8052
424.9693
458.2892
0.1000000 0.3000000 -0.5000000
200.0916
246.9454
348.3808
369.4592
394.9670
453.4246
0.1000000 0.4000000 0.0000000
242.3227
248.2057
362.7868
398.2101
405.0179
436.7546
0.1000000 0.4000000 0.1000000
234.9033
264.2008
360.7388
379.7906
421.0715
453.6989
0.1000000 0.4000000 0.2000000
236.1899
292.8961
328.0429
364.5336
447.5184
471.9668
0.1000000 0.4000000 0.3000000
263.7255
276.3076
329.5469
338.3123
467.9970
471.3333
0.1000000 0.4000000 0.4000000
240.9748
299.6722
317.4667
358.0223
454.6653
473.7326
0.1000000 0.4000000 -0.5000000
233.5107
271.7381
354.0159
376.1377
428.0155
460.4736
0.2000000 0.2000000 0.0000000
173.0974
202.6113
328.3323
363.2209
404.8059
439.2235
0.2000000 0.2000000 0.1000000
182.7375
218.4551
339.0411
366.4389
382.7343
450.3454
0.2000000 0.2000000 0.2000000
214.4523
252.8839
326.2274
339.8538
401.1916
454.9430
0.2000000 0.2000000 0.3000000
262.0694
274.9262
296.2794
304.2449
434.6666
441.7125
0.2000000 0.2000000 0.4000000
227.0866
263.4821
316.0190
328.7184
411.8924
453.0190
0.2000000 0.2000000 -0.5000000
189.5963
227.3473
339.2636
367.1694
377.8710
453.2757
0.2000000 0.3000000 0.0000000
214.4698
257.6855
343.5532
407.1663
412.8318
417.7045
0.2000000 0.3000000 0.1000000
212.8927
270.1606
358.2892
375.5718
411.5777
445.3950
0.2000000 0.3000000 0.2000000
223.1025
295.6599
332.5131
363.6306
429.1314
461.0016
0.2000000 0.3000000 0.3000000
257.7868
271.2048
335.9989
343.5087
452.0288
456.4903
0.2000000 0.3000000 0.4000000
230.5308
297.9706
324.5823
359.4385
436.4404
461.6628
0.2000000 0.3000000 -0.5000000
213.7114
277.2265
359.4987
367.2049
414.3179
451.8838
0.2000000 0.4000000 0.0000000
253.2964
297.5114
359.9515
383.2842
416.3255
439.1006
0.2000000 0.4000000 0.1000000
244.7883
307.9025
359.9742
377.9159
434.7958
443.3623
0.2000000 0.4000000 0.2000000
238.5631
309.8539
343.2522
389.3741
446.3947
462.8553
0.2000000 0.4000000 0.3000000
257.1125
267.8499
366.8559
373.6468
461.8750
464.4803
0.2000000 0.4000000 0.4000000
240.6833
298.8128
349.0476
386.7413
451.3833
465.2748
0.2000000 0.4000000 -0.5000000
241.6022
313.0004
350.9537
384.3826
437.2516
449.8401
0.3000000 0.3000000 0.0000000
247.3669
254.4292
364.4088
394.1533
407.3662
438.2164
0.3000000 0.3000000 0.1000000
238.7101
270.3629
360.7629
380.0363
423.3846
453.6031
0.3000000 0.3000000 0.2000000
237.5852
298.0464
327.0052
368.5185
449.0817
472.0664
0.3000000 0.3000000 0.3000000
262.9291
275.1672
334.6909
343.2963
468.8624
472.0199
0.3000000 0.3000000 0.4000000
241.6400
302.2605
318.8545
362.3912
456.0152
473.9968
0.3000000 0.3000000 -0.5000000
236.6878
277.7789
353.1550
378.0378
430.1607
460.2979
P = 1512.9500	V = 104.5144	E = -655.31730735000000	S_el = 0.00000646114000
0.0000000 0.0000000 0.0000000
0.0000
0.0000
0.0000
323.8866
323.8866
555.3346
0.0000000 0.0000000 0.1000000
80.6131
80.6131
167.8081
315.0554
315.0554
538.5230
0.0000000 0.0000000 0.2000000
151.1377
151.1377
284.3210
284.3210
312.9823
497.8765
0.0000000 0.0000000 0.3000000
214.8436
214.8436
231.9043
231.9043
417.4512
439.2265
0.0000000 0.0000000 0.4000000
169.4883
169.4883
271.3669
271.3669
346.9123
483.5831
0.0000000 0.0000000 -0.5000000
101.5612
101.5612
211.9599
308.8699
308.8699
528.8189
0.0000000 0.1000000 0.0000000
65.1032
86.7814
161.6704
334.1443
349.2498
546.0381
0.0000000 0.1000000 0.1000000
119.6535
122.9410
218.4126
325.8331
339.8554
531.4782
0.0000000 0.1000000 0.2000000
176.7869
186.0452
297.2987
308.7774
329.7952
495.6451
0.0000000 0.1000000 0.3000000
233.8005
243.0806
249.2990
258.7432
422.3625
442.2361
0.0000000 0.1000000 0.4000000
192.9966
202.3245
285.3748
296.0258
359.2596
482.7572
0.0000000 0.1000000 -0.5000000
135.2984
141.9864
248.7926
320.0524
333.4219
523.0219
0.0000000 0.2000000 0.0000000
132.0476
160.5495
297.8874
357.2723
403.9433
520.8506
0.0000000 0.2000000 0.1000000
162.9218
182.0118
326.8808
350.0880
390.9372
514.6744
0.0000000 0.2000000 0.2000000
222.4264
225.8329
326.0330
352.7375
388.8529
496.1129
0.0000000 0.2000000 0.3000000
273.4169
282.4318
285.7231
298.4293
447.7719
461.2110
0.0000000 0.2000000 0.4000000
238.8240
239.8302
316.1092
338.5337
406.7936
488.1948
0.0000000 0.2000000 -0.5000000
178.6618
193.4461
342.3643
345.5764
382.5802
510.7741
0.0000000 0.3000000 0.0000000
198.9203
211.8678
380.0215
391.6911
455.2678
486.1660
0.0000000 0.3000000 0.1000000
210.1649
229.0707
373.5533
411.3641
428.8899
503.0378
0.0000000 0.3000000 0.2000000
243.2349
266.7781
353.2066
375.0594
456.2467
511.0511
0.0000000 0.3000000 0.3000000
296.3040
308.0707
314.3128
318.3794
490.6088
497.6821
0.0000000 0.3000000 0.4000000
256.3518
278.4403
344.9186
358.3184
467.1902
509.3461
0.0000000 0.3000000 -0.5000000
217.3109
238.5789
369.3458
410.7576
428.0867
507.3743
0.0000000 0.4000000 0.0000000
238.4710
259.8481
394.2735
442.8099
450.7887
485.9300
0.0000000 0.4000000 0.1000000
253.3798
259.5464
388.7266
422.6525
465.2422
509.6986
0.0000000 0.4000000 0.2000000
266.9078
287.6662
369.5145
377.1519
499.7167
530.3554
0.0000000 0.4000000 0.3000000
302.5529
318.2640
326.5656
337.3478
523.8606
527.9305
0.0000000 0.4000000 0.4000000
273.4142
298.6221
359.6763
363.0549
507.9973
531.8746
0.0000000 0.4000000 -0.5000000
260.0579
261.7967
384.9266
411.5297
474.9460
517.6194
0.0000000 -0.5000000 0.0000000
246.9740
306.0241
401.3275
420.4472
462.7465
497.7588
0.0000000 -0.5000000 0.1000000
260.6533
297.0284
395.6912
409.0669
484.6653
516.6710
0.0000000 -0.5000000 0.2000000
286.6437
293.4168
374.0638
377.0545
518.5647
541.0116
0.0000000 -0.5000000 0.3000000
308.1942
321.5757
332.5745
343.3897
539.4521
542.5635
0.0000000 -0.5000000 0.4000000
288.2611
304.2379
361.0324
367.8243
526.0084
543.8005
0.0000000 -0.5000000 -0.5000000
268.5616
292.8904
391.7345
402.0714
494.7644
525.0779
0.1000000 0.1000000 0.0000000
92.5657
121.5010
221.1588
343.8842
369.8706
537.1980
0.1000000 0.1000000 0.1000000
138.7869
147.7718
261.9991
336.0427
359.5909
525.1202
0.1000000 0.1000000 0.2000000
197.8217
203.6374
309.2925
326.8618
349.5702
494.6150
0.1000000 0.1000000 0.3000000
249.9770
258.9662
266.6810
276.8853
429.4474
447.1625
0.1000000 0.1000000 0.4000000
212.6750
220.1087
298.2756
313.9247
374.3779
483.3049
0.1000000 0.1000000 -0.5000000
157.6587
161.2842
284.6566
330.6296
352.6838
518.0406
0.1000000 0.2000000 0.0000000
147.2562
188.4738
311.1324
375.8811
411.6964
513.0349
0.1000000 0.2000000 0.1000000
170.0166
207.6416
336.6779
371.9362
396.7959
510.0337
0.1000000 0.2000000 0.2000000
220.9695
247.9305
341.3073
355.8328
403.1853
497.0018
0.1000000 0.2000000 0.3000000
276.4425
283.8814
306.7863
309.2970
455.1566
467.0616
0.1000000 0.2000000 0.4000000
236.9378
259.9431
333.0465
341.2454
418.8397
490.4938
0.1000000 0.2000000 -0.5000000
182.7633
218.0035
346.5759
372.6426
387.5401
507.7104
0.1000000 0.3000000 0.0000000
207.1868
241.1877
367.8482
419.7943
454.1236
479.0969
0.1000000 0.3000000 0.1000000
212.6158
257.8551
377.8207
417.0813
433.1552
499.3836
0.1000000 0.3000000 0.2000000
237.1315
292.4905
362.5352
379.0964
460.0397
509.7822
0.1000000 0.3000000 0.3000000
283.8894
298.5669
338.2926
346.7128
491.6328
498.1893
0.1000000 0.3000000 0.4000000
248.3162
302.1179
349.7803
369.8403
469.9267
508.6028
0.1000000 0.3000000 -0.5000000
217.1869
266.8184
378.6078
407.4922
436.9127
504.4952
0.1000000 0.4000000 0.0000000
262.9847
269.2921
396.0640
443.8815
448.9090
484.7018
0.1000000 0.4000000 0.1000000
255.6849
287.5321
395.0647
419.8998
467.9775
505.0029
0.1000000 0.4000000 0.2000000
257.7948
318.6422
361.3368
398.9229
497.2535
525.4674
0.1000000 0.4000000 0.3000000
288.0852
301.8094
359.5185
368.8725
519.9219
523.7399
0.1000000 0.4000000 0.4000000
262.8707
325.7027
349.6442
391.3844
504.9476
527.1453
0.1000000 0.4000000 -0.5000000
254.5334
295.7240
389.0567
414.2253
475.6115
512.6605
0.2000000 0.2000000 0.0000000
186.6155
217.7178
358.2522
397.7916
443.0615
492.1192
0.2000000 0.2000000 0.1000000
198.0664
235.5393
368.3927
403.2961
421.2367
502.2710
0.2000000 0.2000000 0.2000000
233.1208
273.1461
354.5707
372.1538
443.1451
505.4958
0.2000000 0.2000000 0.3000000
284.9887
298.2379
321.7637
329.7322
480.5096
488.5766
0.2000000 0.2000000 0.4000000
246.5652
284.3323
344.4784
358.7353
454.7192
502.7520
0.2000000 0.2000000 -0.5000000
205.6715
245.1771
368.2426
403.6877
417.1652
505.0088
0.2000000 0.3000000 0.0000000
231.9035
278.3513
374.7632
449.8927
457.8857
462.8657
0.2000000 0.3000000 0.1000000
231.0025
292.4789
390.3634
415.7485
455.8029
495.1642
0.2000000 0.3000000 0.2000000
242.5194
320.0654
366.8243
395.7280
476.0769
512.2697
0.2000000 0.3000000 0.3000000
280.6312
295.2700
365.5800
373.3708
501.0991
506.0966
0.2000000 0.3000000 0.4000000
250.3919
323.0857
356.9016
391.0707
483.8577
512.6674
0.2000000 0.3000000 -0.5000000
232.1184
300.1264
393.7004
404.1175
459.3042
502.3793
0.2000000 0.4000000 0.0000000
274.9240
323.3072
394.4216
426.4152
461.0461
486.7729
0.2000000 0.4000000 0.1000000
266.3821
334.9728
398.8865
414.5683
482.9471
492.9664
0.2000000 0.4000000 0.2000000
259.8271
338.6050
377.4717
425.8696
496.9060
515.1578
0.2000000 0.4000000 0.3000000
280.1497
292.0267
400.9084
408.1261
513.6355
516.4781
0.2000000 0.4000000 0.4000000
261.9480
327.0992
382.4540
422.8631
502.2206
517.6756
0.2000000 0.4000000 -0.5000000
263.1891
340.4116
389.1459
421.0477
486.0997
500.4138
0.3000000 0.3000000 0.0000000
268.5743
276.2638
398.0799
439.1402
451.6869
486.7230
0.3000000 0.3000000 0.1000000
259.9027
294.4400
395.9895
419.5169
470.6951
505.0829
0.3000000 0.3000000 0.2000000
259.3368
324.3591
360.4937
403.3642
499.2380
525.7672
0.3000000 0.3000000 0.3000000
287.1998
300.5734
365.3742
374.5711
521.1359
524.7488
0.3000000 0.3000000 0.4000000
263.6181
329.0825
350.9139
396.3297
506.7068
527.6402
0.3000000 0.3000000 -0.5000000
258.0647
302.4997
388.8696
415.7884
478.1940
512.6394
P = 2012.5000	V = 99.1777	E = -655.25470423000000	S_el = 0.00000594940500
0.0000000 0.0000000 0.0000000
0.0000
0.0000
0.0000
344.6735
344.6735
607.1413
0.0000000 0.0000000 0.1000000
85.5414
85.5414
180.7992
335.3582
335.3582
588.1640
0.0000000 0.0000000 0.2000000
160.2792
160.2792
302.5223
302.5223
338.1700
542.2031
0.0000000 0.0000000 0.3000000
228.1993
228.1993
246.2078
246.2078
452.6580
476.4108
0.0000000 0.0000000 0.4000000
179.4797
179.4797
288.8458
288.8458
374.6231
526.3513
0.0000000 0.0000000 -0.5000000
107.3882
107.3882
227.7810
328.9055
328.9055
577.3848
0.0000000 0.1000000 0.0000000
68.9848
91.3020
173.5053
355.6329
372.0708
596.8268
0.0000000 0.1000000 0.1000000
126.7376
130.8547
235.2084
346.8455
362.2464
580.3930
0.0000000 0.1000000 0.2000000
187.3622
197.9148
316.2428
328.9329
356.2992
539.7058
0.0000000 0.1000000 0.3000000
248.1428
258.4729
264.5194
275.0142
457.7703
479.5061
0.0000000 0.1000000 0.4000000
204.3187
214.8526
303.6053
315.4710
387.8950
525.3315
0.0000000 0.1000000 -0.5000000
143.0079
150.9523
267.6369
340.7944
355.5531
570.9792
0.0000000 0.2000000 0.0000000
140.1612
169.4048
320.4563
380.5766
431.9126
568.8274
0.0000000 0.2000000 0.1000000
173.9261
192.7110
352.2112
372.9427
418.4911
561.5636
0.0000000 0.2000000 0.2000000
237.4426
239.7222
346.9103
377.5415
419.7554
539.5472
0.0000000 0.2000000 0.3000000
290.1462
301.3161
303.4478
318.5245
484.4541
499.2996
0.0000000 0.2000000 0.4000000
253.9529
254.9432
336.2979
362.3862
438.9862
530.4267
0.0000000 0.2000000 -0.5000000
190.6551
204.8003
366.9658
369.9915
409.8938
557.0134
0.0000000 0.3000000 0.0000000
211.6546
224.6699
405.5106
423.0602
489.4845
530.5751
0.0000000 0.3000000 0.1000000
224.6557
243.4765
398.7438
443.8834
463.5366
547.0948
0.0000000 0.3000000 0.2000000
260.6591
283.8067
376.3065
404.2795
493.4445
554.7133
0.0000000 0.3000000 0.3000000
317.7736
327.9130
336.3737
339.1056
530.7798
538.6120
0.0000000 0.3000000 0.4000000
274.4454
295.9617
367.4654
386.0592
505.0383
552.4549
0.0000000 0.3000000 -0.5000000
232.4856
253.5726
394.2766
442.8878
463.2150
551.5150
0.0000000 0.4000000 0.0000000
254.5974
277.2490
421.9708
480.2886
490.4617
527.1167
0.0000000 0.4000000 0.1000000
270.8939
278.0532
415.8447
458.4569
505.0683
554.1312
0.0000000 0.4000000 0.2000000
286.9268
307.4853
395.6968
407.0543
542.1347
576.5421
0.0000000 0.4000000 0.3000000
325.5357
342.3753
348.7813
360.0860
568.3719
572.9132
0.0000000 0.4000000 0.4000000
293.8118
318.8687
386.5455
390.1770
550.9157
577.9298
0.0000000 0.4000000 -0.5000000
278.9551
279.8691
411.7374
446.3704
515.3424
562.7725
0.0000000 -0.5000000 0.0000000
265.3650
327.3133
430.1940
456.5884
503.9829
543.4978
0.0000000 -0.5000000 0.1000000
280.2505
319.0538
424.4512
443.4547
527.3226
564.1103
0.0000000 -0.5000000 0.2000000
309.1270
315.0644
403.0637
405.5775
563.9048
590.0123
0.0000000 -0.5000000 0.3000000
332.3988
346.6959
356.4032
367.7822
587.0674
590.6478
0.0000000 -0.5000000 0.4000000
310.8523
326.2665
390.0063
394.5577
571.9294
592.7403
0.0000000 -0.5000000 -0.5000000
288.5979
315.1864
420.4952
435.5052
537.9897
573.0371
0.1000000 0.1000000 0.0000000
98.1413
128.0051
237.4957
366.1451
394.4748
587.0096
0.1000000 0.1000000 0.1000000
147.9920
156.3749
282.0605
357.8570
383.7806
573.3348
0.1000000 0.1000000 0.2000000
209.7371
216.9434
329.0085
348.7172
377.4905
538.4334
0.1000000 0.1000000 0.3000000
265.2267
275.2566
283.3870
294.6993
465.1677
484.6084
0.1000000 0.1000000 0.4000000
225.2191
234.1071
317.3053
334.9950
404.1103
525.7175
0.1000000 0.1000000 -0.5000000
167.7223
170.7448
306.2800
352.1988
376.6127
565.4075
0.1000000 0.2000000 0.0000000
156.3488
199.2427
333.7278
402.0167
440.5011
560.1284
0.1000000 0.2000000 0.1000000
181.3607
220.1406
360.7892
398.9562
425.1158
556.2713
0.1000000 0.2000000 0.2000000
235.9213
263.1354
363.2787
381.4561
435.5314
540.2782
0.1000000 0.2000000 0.3000000
294.5118
301.4569
327.3965
329.4044
492.4008
505.5468
0.1000000 0.2000000 0.4000000
252.5654
275.6304
354.6021
365.7514
452.2393
532.6890
0.1000000 0.2000000 -0.5000000
194.9247
231.1146
370.2079
400.9845
415.5887
553.3957
0.1000000 0.3000000 0.0000000
220.4514
256.0064
393.4286
452.6126
488.5647
522.6311
0.1000000 0.3000000 0.1000000
226.9925
274.3510
403.5421
449.9748
468.7708
542.9070
0.1000000 0.3000000 0.2000000
253.5716
311.3302
388.8042
406.5777
498.0713
553.3262
0.1000000 0.3000000 0.3000000
303.5093
318.8334
361.3438
369.8930
532.1696
539.3777
0.1000000 0.3000000 0.4000000
265.2597
321.2720
375.8588
395.7573
508.4825
551.6846
0.1000000 0.3000000 -0.5000000
232.0235
283.8951
404.2003
439.8919
473.0515
548.2249
0.1000000 0.4000000 0.0000000
280.5746
287.4184
424.1408
482.7210
486.5064
525.7496
0.1000000 0.4000000 0.1000000
273.4505
307.5859
423.7656
454.3632
508.1724
548.8411
0.1000000 0.4000000 0.2000000
276.3135
340.6792
389.4408
428.3655
539.7581
571.1177
0.1000000 0.4000000 0.3000000
308.8244
323.4190
385.1324
394.9414
564.2100
568.4209
0.1000000 0.4000000 0.4000000
281.6115
347.8498
376.9983
419.9146
547.8731
572.7120
0.1000000 0.4000000 -0.5000000
272.5198
316.3218
418.3367
447.0895
516.3529
557.2119
0.2000000 0.2000000 0.0000000
198.4249
230.6938
383.4892
427.6969
475.6308
537.1507
0.2000000 0.2000000 0.1000000
211.4370
250.2518
393.2313
434.9136
454.1714
546.7346
0.2000000 0.2000000 0.2000000
249.2517
290.4842
378.4234
399.9214
479.2207
548.8151
0.2000000 0.2000000 0.3000000
304.4539
317.8978
343.5616
351.5570
519.8085
528.7178
0.2000000 0.2000000 0.4000000
263.3024
302.1122
368.3407
384.7127
491.4763
545.3911
0.2000000 0.2000000 -0.5000000
219.6577
260.5063
392.8735
434.7307
451.0265
549.3298
0.2000000 0.3000000 0.0000000
246.9611
296.0831
401.1377
485.8803
496.0864
502.2964
0.2000000 0.3000000 0.1000000
246.6736
311.6546
417.4970
449.8538
493.9555
537.7235
0.2000000 0.3000000 0.2000000
259.2963
340.9214
395.9813
423.1409
516.3460
556.0662
0.2000000 0.3000000 0.3000000
300.1226
315.6830
390.8675
398.8395
543.0564
548.4798
0.2000000 0.3000000 0.4000000
267.4919
344.3002
384.6510
418.0600
524.4766
556.2449
0.2000000 0.3000000 -0.5000000
248.0497
319.7807
422.0749
436.1744
498.0331
545.5211
0.2000000 0.4000000 0.0000000
293.4571
345.4070
423.5883
463.1600
499.1130
527.7331
0.2000000 0.4000000 0.1000000
284.9032
358.1827
431.6428
445.9564
524.1699
535.3863
0.2000000 0.4000000 0.2000000
278.1095
362.8463
406.8902
456.9491
540.0872
559.6907
0.2000000 0.4000000 0.3000000
299.8313
312.5896
429.9621
437.5018
557.7568
560.7733
0.2000000 0.4000000 0.4000000
280.2146
351.0020
411.1404
453.6345
545.6311
562.2884
0.2000000 0.4000000 -0.5000000
281.7215
363.9058
421.5657
452.2299
527.9731
543.5129
0.3000000 0.3000000 0.0000000
286.6184
295.0286
426.4849
477.4000
489.6352
528.2553
0.3000000 0.3000000 0.1000000
278.0075
315.1258
425.3919
453.5085
511.2059
549.0693
0.3000000 0.3000000 0.2000000
277.9732
346.8735
388.8026
433.1483
542.0780
571.5742
0.3000000 0.3000000 0.3000000
307.8643
322.1077
391.5878
401.2421
565.7035
569.6881
0.3000000 0.3000000 0.4000000
282.4255
351.7876
378.3036
425.3183
549.9601
573.3873
0.3000000 0.3000000 -0.5000000
276.3436
323.7194
418.7488
448.3335
519.2787
557.3168
P = 2511.6500	V = 94.8736	E = -655.18953403000000	S_el = 0.00000556186500
0.0000000 0.0000000 0.0000000
0.0000
0.0000
0.0000
363.0193
363.0193
652.5326
0.0000000 0.0000000 0.1000000
90.2825
90.2825
192.0589
353.2890
353.2890
631.7090
0.0000000 0.0000000 0.2000000
168.7003
168.7003
318.5832
318.5832
360.1875
581.1811
0.0000000 0.0000000 0.3000000
240.0790
240.0790
258.8596
258.8596
483.6289
509.1034
0.0000000 0.0000000 0.4000000
188.5610
188.5610
304.2789
304.2789
398.8397
564.0131
0.0000000 0.0000000 -0.5000000
112.9397
112.9397
241.4518
346.6078
346.6078
620.0427
0.0000000 0.1000000 0.0000000
72.6762
95.3879
184.1338
374.5777
392.1940
641.3644
0.0000000 0.1000000 0.1000000
133.2061
138.0585
250.1445
365.3939
382.0304
623.3423
0.0000000 0.1000000 0.2000000
196.9499
208.6208
332.9651
346.7447
379.6538
578.4993
0.0000000 0.1000000 0.3000000
260.8626
272.1360
277.9653
289.4088
488.9996
512.3455
0.0000000 0.1000000 0.4000000
214.4953
226.0894
319.7067
332.6746
413.0695
562.8734
0.0000000 0.1000000 -0.5000000
150.1011
159.0561
284.2678
359.1169
375.1264
613.1432
0.0000000 0.2000000 0.0000000
147.6654
177.3764
340.6606
401.0842
456.5734
610.9785
0.0000000 0.2000000 0.1000000
183.8880
202.3445
374.8230
393.0964
442.8441
602.8349
0.0000000 0.2000000 0.2000000
250.6086
252.3636
365.3438
399.4558
447.2095
577.9122
0.0000000 0.2000000 0.3000000
304.9320
317.7290
319.3916
336.2863
516.9507
533.0008
0.0000000 0.2000000 0.4000000
267.0821
268.7056
354.1322
383.4821
467.5198
567.7852
0.0000000 0.2000000 -0.5000000
201.4488
214.9964
388.0472
392.3632
434.0727
597.7707
0.0000000 0.3000000 0.0000000
223.0867
236.1576
427.8306
451.0579
519.7611
569.5953
0.0000000 0.3000000 0.1000000
237.6458
256.3634
420.9220
472.6318
494.2081
586.0277
0.0000000 0.3000000 0.2000000
276.2254
298.9176
396.7518
429.9639
526.4433
593.3183
0.0000000 0.3000000 0.3000000
336.8176
345.2530
355.5489
357.8879
566.3323
574.8127
0.0000000 0.3000000 0.4000000
290.5667
311.4667
387.3380
410.5883
538.5663
590.5903
0.0000000 0.3000000 -0.5000000
246.0682
266.9495
416.2521
471.1632
494.4496
590.5260
0.0000000 0.4000000 0.0000000
269.0520
292.5275
446.2486
513.4553
525.3548
563.5330
0.0000000 0.4000000 0.1000000
286.5515
294.3476
439.7225
489.8347
540.3315
593.3497
0.0000000 0.4000000 0.2000000
304.6395
325.0896
418.4168
433.6584
579.5806
617.2681
0.0000000 0.4000000 0.3000000
345.8469
363.5207
368.5132
380.1431
607.6152
612.5602
0.0000000 0.4000000 0.4000000
311.8584
336.8115
409.5572
414.7203
588.7701
618.5389
0.0000000 0.4000000 -0.5000000
295.5714
296.0280
435.3754
476.9268
551.0692
602.5981
0.0000000 -0.5000000 0.0000000
281.8472
345.7802
455.4108
488.3218
540.4257
583.8538
0.0000000 -0.5000000 0.1000000
297.7821
338.2253
449.5265
473.6645
564.9240
605.9336
0.0000000 -0.5000000 0.2000000
328.8366
334.3280
427.9235
431.0984
603.7575
633.1346
0.0000000 -0.5000000 0.3000000
353.6485
368.7014
377.4718
389.3061
628.9163
632.9084
0.0000000 -0.5000000 0.4000000
330.6793
345.8267
415.1113
418.3183
612.2681
635.7958
0.0000000 -0.5000000 -0.5000000
306.4950
334.6239
445.5116
464.9590
576.0406
615.2874
0.1000000 0.1000000 0.0000000
103.3905
133.8774
252.1445
385.7660
416.1589
630.7228
0.1000000 0.1000000 0.1000000
156.2883
164.2106
299.9631
377.1229
405.1531
615.7059
0.1000000 0.1000000 0.2000000
220.4291
228.8811
346.4180
368.0540
402.1980
577.0588
0.1000000 0.1000000 0.3000000
278.7262
289.6143
298.2210
310.4537
496.7385
517.6633
0.1000000 0.1000000 0.4000000
236.4218
246.5990
334.1187
353.6440
430.3608
563.1630
0.1000000 0.1000000 -0.5000000
176.6872
179.4096
325.4707
371.2756
397.7795
607.0890
0.1000000 0.2000000 0.0000000
164.7222
208.9337
353.7482
425.2508
465.8613
601.5250
0.1000000 0.2000000 0.1000000
191.6439
231.3807
381.9392
423.2052
450.0863
597.0005
0.1000000 0.2000000 0.2000000
249.2879
276.6844
382.7155
404.0544
464.2711
578.5266
0.1000000 0.2000000 0.3000000
310.4404
316.9505
345.5380
347.3439
525.4048
539.6126
0.1000000 0.2000000 0.4000000
266.4765
289.5568
373.6100
387.4632
481.8575
570.0311
0.1000000 0.2000000 -0.5000000
205.8885
242.8760
390.9042
426.3906
440.3574
593.6946
0.1000000 0.3000000 0.0000000
232.3755
269.2763
415.8995
481.7990
518.9902
560.9523
0.1000000 0.3000000 0.1000000
239.8935
289.0983
426.1915
478.9098
500.4266
581.3694
0.1000000 0.3000000 0.2000000
268.2675
328.0583
411.6652
431.1252
531.7981
591.8078
0.1000000 0.3000000 0.3000000
320.8610
336.6594
381.7926
390.4259
568.0346
575.7950
0.1000000 0.3000000 0.4000000
280.3624
338.2382
398.6608
418.8818
542.6325
589.7749
0.1000000 0.3000000 -0.5000000
245.3208
299.1299
426.7662
468.3938
505.1739
586.8619
0.1000000 0.4000000 0.0000000
296.0924
303.6114
448.7849
516.8926
519.7619
562.0602
0.1000000 0.4000000 0.1000000
289.1727
325.4442
448.7871
484.8598
543.7356
587.5339
0.1000000 0.4000000 0.2000000
292.7433
360.2205
414.0263
454.4287
577.2804
611.3558
0.1000000 0.4000000 0.3000000
327.1469
342.4351
407.8045
417.9835
603.2540
607.7978
0.1000000 0.4000000 0.4000000
298.2312
367.4351
401.0332
445.1593
585.7373
612.8755
0.1000000 0.4000000 -0.5000000
288.4429
334.6413
443.7844
476.3039
552.3693
596.4986
0.2000000 0.2000000 0.0000000
209.1098
242.3342
405.6364
454.3896
504.4755
576.6718
0.2000000 0.2000000 0.1000000
223.4774
263.4279
415.0886
462.9154
483.3484
585.9991
0.2000000 0.2000000 0.2000000
263.6697
305.8965
399.3474
424.5380
511.2462
587.1236
0.2000000 0.2000000 0.3000000
321.6341
335.1640
362.8922
370.9425
554.6105
564.2385
0.2000000 0.2000000 0.4000000
278.2086
317.8742
389.1752
407.9073
524.0593
583.1245
0.2000000 0.2000000 -0.5000000
232.2201
274.2026
414.5956
462.0782
481.1402
588.4931
0.2000000 0.3000000 0.0000000
260.4316
311.9169
424.3364
517.4654
529.4873
537.6984
0.2000000 0.3000000 0.1000000
260.6894
328.7558
441.4240
479.7657
527.8762
575.3029
0.2000000 0.3000000 0.2000000
274.2925
359.4141
421.6294
447.3847
552.0059
594.7105
0.2000000 0.3000000 0.3000000
317.3942
333.6821
413.2700
421.3631
580.1271
585.9035
0.2000000 0.3000000 0.4000000
282.7486
362.9793
409.2327
441.9169
560.4112
594.7071
0.2000000 0.3000000 -0.5000000
262.2959
337.2815
446.6675
464.7899
532.4128
583.5861
0.2000000 0.4000000 0.0000000
309.9059
365.0654
449.2546
495.5530
532.6487
564.0422
0.2000000 0.4000000 0.1000000
301.3406
378.8111
460.2035
473.8167
560.6203
572.8229
0.2000000 0.4000000 0.2000000
294.3814
384.1000
432.9815
484.3533
578.2066
598.8776
0.2000000 0.4000000 0.3000000
317.2904
330.7583
455.6405
463.4357
596.6319
599.7822
0.2000000 0.4000000 0.4000000
296.4763
371.9785
436.5957
480.7790
583.9249
601.5474
0.2000000 0.4000000 -0.5000000
298.1783
384.7684
450.0360
479.7259
565.0027
581.4646
0.3000000 0.3000000 0.0000000
302.5274
311.7820
451.4152
511.0651
523.1900
564.9914
0.3000000 0.3000000 0.1000000
294.0209
333.5364
450.9560
483.6634
547.0228
587.8911
0.3000000 0.3000000 0.2000000
294.5022
366.8302
413.5935
459.4788
579.8768
611.9393
0.3000000 0.3000000 0.3000000
326.1230
341.0625
414.7820
424.8082
604.9794
609.2791
0.3000000 0.3000000 0.4000000
299.1021
371.7930
402.4532
450.9423
588.0960
613.6970
0.3000000 0.3000000 -0.5000000
292.5182
342.5822
444.7177
477.2668
555.5734
596.7101
P = 3009.5600	V = 91.2893	E = -655.12304687000000	S_el = 0.00000525818000
0.0000000 0.0000000 0.0000000
0.0000
0.0000
0.0000
379.5153
379.5153
693.0220
0.0000000 0.0000000 0.1000000
94.8850
94.8850
202.0049
369.4202
369.4202
670.5862
0.0000000 0.0000000 0.2000000
176.6004
176.6004
333.0292
333.0292
379.7790
616.0456
0.0000000 0.0000000 0.3000000
250.8728
250.8728
270.2906
270.2906
511.3354
538.3389
0.0000000 0.0000000 0.4000000
196.9858
196.9858
318.1732
318.1732
420.3850
597.7373
0.0000000 0.0000000 -0.5000000
118.2944
118.2944
253.4976
362.5393
362.5393
658.1661
0.0000000 0.1000000 0.0000000
76.2099
99.1597
193.8309
391.5960
410.2739
681.1237
0.0000000 0.1000000 0.1000000
139.2155
144.7195
263.6465
382.0727
399.8336
661.7201
0.0000000 0.1000000 0.2000000
205.8108
218.4556
348.0090
362.8062
400.5610
613.2371
0.0000000 0.1000000 0.3000000
272.3827
284.5129
290.0952
302.4053
517.0046
541.7713
0.0000000 0.1000000 0.4000000
223.8333
236.3675
334.2043
348.1845
435.5875
596.5311
0.0000000 0.1000000 -0.5000000
156.7398
166.5068
299.2024
375.6023
392.7542
650.8567
0.0000000 0.2000000 0.0000000
154.6888
184.7012
359.0405
419.4755
478.7224
648.6737
0.0000000 0.2000000 0.1000000
193.0319
211.1811
395.3306
411.2000
464.7634
639.7851
0.0000000 0.2000000 0.2000000
262.3745
264.0568
381.9269
419.1774
471.9945
612.3596
0.0000000 0.2000000 0.3000000
318.2718
332.2931
333.9873
352.2904
546.2142
563.3165
0.0000000 0.2000000 0.4000000
278.7293
281.4286
370.1875
402.4857
493.2302
601.3723
0.0000000 0.2000000 -0.5000000
211.3087
224.3257
406.5056
413.0948
455.8633
634.2997
0.0000000 0.3000000 0.0000000
233.5183
246.6657
447.8313
476.3812
547.1146
604.4059
0.0000000 0.3000000 0.1000000
249.4678
268.1018
440.8133
498.4926
521.8418
620.9931
0.0000000 0.3000000 0.2000000
290.3537
312.5769
415.2096
452.9268
556.1973
628.0176
0.0000000 0.3000000 0.3000000
354.0126
360.7564
372.5206
375.1728
598.3286
607.3736
0.0000000 0.3000000 0.4000000
305.1734
325.4513
405.2395
432.6085
568.7637
624.8862
0.0000000 0.3000000 -0.5000000
258.4118
279.1020
435.9808
496.5139
522.6663
625.5687
0.0000000 0.4000000 0.0000000
282.2383
306.1965
467.9396
543.3331
556.5760
596.2836
0.0000000 0.4000000 0.1000000
300.7870
308.9517
461.1681
517.8100
572.0773
628.5551
0.0000000 0.4000000 0.2000000
320.5823
340.9989
438.5913
457.6584
613.2025
653.7939
0.0000000 0.4000000 0.3000000
364.1197
382.4159
386.3539
398.1699
642.8169
648.1146
0.0000000 0.4000000 0.4000000
328.1058
352.9979
429.7047
437.2220
622.7358
654.9616
0.0000000 0.4000000 -0.5000000
310.4452
310.7164
456.6468
504.1636
583.1991
638.3246
0.0000000 -0.5000000 0.0000000
296.8638
362.1222
477.9394
516.6194
573.1878
620.0748
0.0000000 -0.5000000 0.1000000
313.7169
355.2400
471.8876
500.6141
598.6449
643.4353
0.0000000 -0.5000000 0.2000000
346.4358
351.7528
449.6972
454.2846
639.4064
671.7414
0.0000000 -0.5000000 0.3000000
372.6534
388.3456
396.4364
408.6496
666.3512
670.7106
0.0000000 -0.5000000 0.4000000
348.4038
363.4912
437.2930
439.8049
648.3349
674.3356
0.0000000 -0.5000000 -0.5000000
322.7371
351.8969
467.7682
491.3000
610.1236
653.1464
0.1000000 0.1000000 0.0000000
108.3754
139.2897
265.4914
403.3871
435.6309
669.7731
0.1000000 0.1000000 0.1000000
163.8822
171.4731
316.1969
394.4526
424.3839
653.5949
0.1000000 0.1000000 0.2000000
230.2130
239.7826
362.0834
385.4891
424.4171
611.6807
0.1000000 0.1000000 0.3000000
290.9270
302.5372
311.6508
324.6660
525.1048
547.3323
0.1000000 0.1000000 0.4000000
246.6341
257.9605
349.2601
370.4596
453.9311
596.7707
0.1000000 0.1000000 -0.5000000
184.8179
187.4753
342.7892
388.4560
416.8436
644.3984
0.1000000 0.2000000 0.0000000
172.5306
217.8267
371.8139
446.2553
488.6095
638.5639
0.1000000 0.2000000 0.1000000
201.0936
241.6726
400.8574
445.2857
472.5193
633.4868
0.1000000 0.2000000 0.2000000
261.4377
288.9882
400.2462
424.3387
490.2190
612.8877
0.1000000 0.2000000 0.3000000
324.7670
330.8946
361.8187
363.6341
555.1343
570.2688
0.1000000 0.2000000 0.4000000
279.0838
302.1652
390.7261
407.0135
508.5562
603.6176
0.1000000 0.2000000 -0.5000000
215.9179
253.6202
409.4054
449.4841
462.6353
629.8340
0.1000000 0.3000000 0.0000000
243.2677
281.3862
436.0451
508.1673
546.4451
595.1875
0.1000000 0.3000000 0.1000000
251.6475
302.5185
446.5250
504.8420
529.0070
615.9169
0.1000000 0.3000000 0.2000000
281.6175
343.1842
431.9796
453.3890
562.1969
626.3835
0.1000000 0.3000000 0.3000000
336.4985
352.6551
400.2573
408.9467
600.3025
608.5414
0.1000000 0.3000000 0.4000000
294.0567
353.5506
418.9924
439.8516
573.3836
624.0154
0.1000000 0.3000000 -0.5000000
257.4213
312.9646
447.0689
493.8996
534.1796
621.5636
0.1000000 0.4000000 0.0000000
310.0334
318.3391
470.8582
547.4982
549.6682
594.7250
0.1000000 0.4000000 0.1000000
303.3319
341.6224
471.0814
512.2679
575.7245
622.2674
0.1000000 0.4000000 0.2000000
307.5723
377.8562
435.9468
477.8957
610.9686
647.4334
0.1000000 0.4000000 0.3000000
343.6379
359.4947
428.2302
438.7195
638.2744
643.1066
0.1000000 0.4000000 0.4000000
313.2315
385.0893
422.5263
467.8869
619.7125
648.8879
0.1000000 0.4000000 -0.5000000
302.7849
351.2163
466.3725
502.6717
584.7444
631.7367
0.2000000 0.2000000 0.0000000
218.9253
252.9800
425.4703
478.5836
530.5187
611.9395
0.2000000 0.2000000 0.1000000
234.4793
275.4413
434.7071
488.1246
509.6542
621.2397
0.2000000 0.2000000 0.2000000
276.7665
319.8505
418.0930
446.7098
540.1388
621.5599
0.2000000 0.2000000 0.3000000
337.0925
350.6433
380.3437
388.4720
585.9464
596.2002
0.2000000 0.2000000 0.4000000
291.7158
332.1143
407.7543
428.9361
553.4211
617.0676
0.2000000 0.2000000 -0.5000000
243.6728
286.6614
434.1147
486.6165
508.3479
623.6647
0.2000000 0.3000000 0.0000000
272.6830
326.3203
445.1586
545.7718
559.1952
569.9146
0.2000000 0.3000000 0.1000000
273.4240
344.2791
462.9611
506.4652
558.4996
609.0447
0.2000000 0.3000000 0.2000000
287.9158
376.1122
444.6019
469.2079
584.1053
629.3902
0.2000000 0.3000000 0.3000000
332.9861
349.8647
433.4731
441.6476
613.4400
619.5168
0.2000000 0.3000000 0.4000000
296.5941
379.7697
431.3617
463.3860
592.7338
629.2343
0.2000000 0.3000000 -0.5000000
275.2361
353.1427
468.4810
490.6914
563.4140
617.7424
0.2000000 0.4000000 0.0000000
324.7607
382.8711
472.2932
524.6198
562.7245
596.7481
0.2000000 0.4000000 0.1000000
316.1793
397.4699
485.5865
498.9859
593.3932
606.4133
0.2000000 0.4000000 0.2000000
309.1105
403.1139
456.4941
508.9536
612.4266
633.9653
0.2000000 0.4000000 0.3000000
333.0654
347.1195
478.7452
486.7494
631.4837
634.7401
0.2000000 0.4000000 0.4000000
311.2056
390.7504
459.5603
505.1571
618.2840
636.7030
0.2000000 0.4000000 -0.5000000
313.0399
403.6202
475.4917
504.4230
598.2845
615.4654
0.3000000 0.3000000 0.0000000
316.8123
327.0096
473.7438
541.2199
553.3579
598.0338
0.3000000 0.3000000 0.1000000
308.4358
350.2056
473.6695
510.8312
579.2190
622.7388
0.3000000 0.3000000 0.2000000
309.4172
384.8338
435.7152
483.1610
613.7981
648.1225
0.3000000 0.3000000 0.3000000
342.5589
358.0711
435.6707
446.0084
640.1963
644.7695
0.3000000 0.3000000 0.4000000
314.1527
389.7766
424.1039
473.9917
622.3013
649.8309
0.3000000 0.3000000 -0.5000000
307.0816
359.6403
467.7576
503.3922
588.1789
632.0404
P = 5009.0300	V = 81.0010	E = -654.84996574000000	S_el = 0.00000448271500
0.0000000 0.0000000 0.0000000
0.0000
0.0000
0.0000
433.9947
433.9947
824.4135
0.0000000 0.0000000 0.1000000
112.3150
112.3150
233.6796
422.7360
422.7360
796.9264
0.0000000 0.0000000 0.2000000
204.9564
204.9564
380.8029
380.8029
443.0175
729.6845
0.0000000 0.0000000 0.3000000
287.4123
287.4123
308.5554
308.5554
601.6389
633.5722
0.0000000 0.0000000 0.4000000
226.6655
226.6655
364.2290
364.2290
489.9218
707.8558
0.0000000 0.0000000 -0.5000000
138.4047
138.4047
291.6928
415.2298
415.2298
782.2572
0.0000000 0.1000000 0.0000000
89.2117
112.3310
226.6832
447.6999
469.8942
810.3460
0.0000000 0.1000000 0.1000000
160.3596
167.8897
308.5824
437.1461
458.6942
786.6322
0.0000000 0.1000000 0.2000000
236.7477
252.3451
397.7696
416.2768
468.6976
726.6948
0.0000000 0.1000000 0.3000000
311.1178
326.1052
330.5563
345.7933
608.7079
637.9977
0.0000000 0.1000000 0.4000000
256.0429
271.5466
382.2584
399.6983
509.0119
706.6848
0.0000000 0.1000000 -0.5000000
180.4267
192.1844
348.3024
430.0948
451.1158
773.8010
0.0000000 0.2000000 0.0000000
179.5871
210.0289
420.9628
479.9104
551.6805
771.6117
0.0000000 0.2000000 0.1000000
224.3065
241.5556
463.9812
470.8521
537.2548
760.4504
0.0000000 0.2000000 0.2000000
300.7676
304.7888
436.7524
484.4052
554.2119
725.4184
0.0000000 0.2000000 0.3000000
362.7530
379.2474
383.8897
405.4122
642.8309
663.2099
0.0000000 0.2000000 0.4000000
316.3304
325.6360
423.3594
465.4548
578.2363
711.8700
0.0000000 0.2000000 -0.5000000
244.7551
256.2437
464.4423
485.1141
528.0852
753.7880
0.0000000 0.3000000 0.0000000
268.8907
282.6185
513.8486
560.3789
638.6110
716.9402
0.0000000 0.3000000 0.1000000
289.2787
307.8649
506.1516
583.8196
613.3305
735.7675
0.0000000 0.3000000 0.2000000
337.7197
358.1649
476.7714
527.6917
654.6792
742.1556
0.0000000 0.3000000 0.3000000
411.2068
411.6808
426.7223
434.7195
703.8975
714.6919
0.0000000 0.3000000 0.4000000
354.0335
371.9532
464.8508
504.7213
668.5292
737.8283
0.0000000 0.3000000 -0.5000000
299.8627
320.0503
500.8935
579.7366
616.3682
740.6606
0.0000000 0.4000000 0.0000000
327.0116
350.8836
538.6879
642.2569
658.4319
704.2268
0.0000000 0.4000000 0.1000000
348.7444
356.8016
531.9469
608.4006
676.8661
744.1256
0.0000000 0.4000000 0.2000000
373.2268
393.9765
503.9497
536.9028
723.6400
773.4958
0.0000000 0.4000000 0.3000000
424.4571
444.0318
445.8680
457.6591
758.2668
764.6640
0.0000000 0.4000000 0.4000000
381.8078
406.7448
492.9909
513.9177
734.1800
774.3502
0.0000000 0.4000000 -0.5000000
359.0559
360.1570
527.1950
592.1911
689.0484
755.4546
0.0000000 -0.5000000 0.0000000
347.6419
414.4446
551.7803
608.0489
681.1009
738.9838
0.0000000 -0.5000000 0.1000000
367.2967
410.0011
544.9146
587.7434
709.1758
766.2699
0.0000000 -0.5000000 0.2000000
403.7132
409.8126
518.0833
532.1098
755.6988
797.8418
0.0000000 -0.5000000 0.3000000
434.7223
452.2866
459.1370
472.4320
788.4864
794.0375
0.0000000 -0.5000000 0.4000000
406.2253
422.1987
508.0328
511.4507
765.9008
800.1882
0.0000000 -0.5000000 -0.5000000
377.1808
407.6147
540.1135
576.8706
721.5900
776.9889
0.1000000 0.1000000 0.0000000
126.4792
158.1194
310.5980
461.4434
499.7738
796.8625
0.1000000 0.1000000 0.1000000
189.7645
196.9130
370.5328
451.7006
487.9475
777.0809
0.1000000 0.1000000 0.2000000
263.7288
276.8797
413.9122
443.4151
497.5417
724.9664
0.1000000 0.1000000 0.3000000
331.7657
345.4474
356.6735
371.9975
618.3432
644.6728
0.1000000 0.1000000 0.4000000
281.3998
296.3802
399.4526
426.3054
531.3453
706.9841
0.1000000 0.1000000 -0.5000000
212.1169
215.9226
400.2489
445.3313
479.9620
766.1848
0.1000000 0.2000000 0.0000000
200.0383
248.4583
431.8747
516.2048
563.3654
759.4803
0.1000000 0.2000000 0.1000000
233.4795
276.8979
462.7498
519.6624
546.4781
752.7460
0.1000000 0.2000000 0.2000000
302.3380
330.4582
458.5652
490.9862
576.3065
725.7765
0.1000000 0.2000000 0.3000000
372.2077
377.1670
415.4300
418.4416
653.3536
671.3696
0.1000000 0.2000000 0.4000000
321.3482
344.4489
447.6087
471.5361
596.8915
714.2075
0.1000000 0.2000000 -0.5000000
250.0206
290.2296
469.9484
526.9329
536.2226
748.1638
0.1000000 0.3000000 0.0000000
280.2684
322.6083
502.3424
595.7302
638.1131
706.1171
0.1000000 0.3000000 0.1000000
291.3228
347.8683
513.5282
589.9098
623.7765
729.3703
0.1000000 0.3000000 0.2000000
326.4696
393.6791
497.6731
527.8573
662.7293
740.0506
0.1000000 0.3000000 0.3000000
388.3972
405.3608
461.6835
470.4625
706.7061
716.4141
0.1000000 0.3000000 0.4000000
339.9584
404.5114
485.0815
510.0639
674.9246
736.6963
0.1000000 0.3000000 -0.5000000
298.1703
359.5195
514.3507
577.1199
630.3965
735.5255
0.1000000 0.4000000 0.0000000
355.9628
368.0684
543.3455
647.6402
648.1620
702.4176
0.1000000 0.4000000 0.1000000
350.1652
395.7546
543.6815
602.2792
681.1165
736.2928
0.1000000 0.4000000 0.2000000
356.8185
436.4460
507.1333
555.4246
721.5985
765.6092
0.1000000 0.4000000 0.3000000
398.2040
415.6230
495.8589
507.2499
753.1117
758.8306
0.1000000 0.4000000 0.4000000
363.0776
443.7272
492.5995
542.9917
731.1810
766.8731
0.1000000 0.4000000 -0.5000000
350.2212
406.5342
539.2778
589.9899
691.2921
747.2420
0.2000000 0.2000000 0.0000000
252.6102
289.3933
490.5897
559.4181
617.3305
726.2667
0.2000000 0.2000000 0.1000000
271.8043
316.2061
499.3713
571.3115
596.8703
736.7743
0.2000000 0.2000000 0.2000000
320.7654
366.5651
479.7587
519.8864
635.8596
734.8437
0.2000000 0.2000000 0.3000000
388.2594
401.5980
438.3856
446.9675
689.4189
701.6107
0.2000000 0.2000000 0.4000000
336.9428
379.6186
468.3003
499.2255
650.5112
728.8902
0.2000000 0.2000000 -0.5000000
282.3636
328.7406
498.4976
567.2723
598.7177
739.1196
0.2000000 0.3000000 0.0000000
313.9696
375.0112
513.8301
638.9267
654.9035
678.1402
0.2000000 0.3000000 0.1000000
316.2052
396.4701
534.4359
593.1838
659.9807
719.8389
0.2000000 0.3000000 0.2000000
333.6951
431.6932
519.8013
541.3389
690.0005
743.1722
0.2000000 0.3000000 0.3000000
384.8918
403.3600
500.5144
508.8098
723.0503
730.0191
0.2000000 0.3000000 0.4000000
343.0772
435.3496
504.3478
534.3293
699.2392
742.5951
0.2000000 0.3000000 -0.5000000
318.6758
406.3011
539.0044
576.8125
665.9496
729.7733
0.2000000 0.4000000 0.0000000
374.1663
442.5057
548.2441
620.0776
661.4048
704.7406
0.2000000 0.4000000 0.1000000
365.4668
459.7417
567.4777
582.7882
701.3047
716.5259
0.2000000 0.4000000 0.2000000
358.2951
465.3972
534.1933
589.8365
724.7531
748.6342
0.2000000 0.4000000 0.3000000
385.6597
401.3466
555.0671
563.6467
745.6645
749.1920
0.2000000 0.4000000 0.4000000
360.4826
452.2257
535.6836
585.3826
730.9873
751.6244
0.2000000 0.4000000 -0.5000000
362.4259
466.3989
558.5107
585.7846
707.7158
726.6891
0.3000000 0.3000000 0.0000000
363.8254
378.3561
547.0668
639.9086
652.6727
706.9241
0.3000000 0.3000000 0.1000000
356.0771
405.9182
547.1913
600.5010
685.1672
737.1299
0.3000000 0.3000000 0.2000000
358.9310
444.5994
507.6492
561.2584
725.1019
766.5945
0.3000000 0.3000000 0.3000000
396.9583
414.0564
504.7835
516.0250
755.6092
761.0247
0.3000000 0.3000000 0.4000000
364.1609
449.2570
494.9673
550.0440
734.4420
768.1561
0.3000000 0.3000000 -0.5000000
355.2209
416.5141
541.9921
590.0287
695.3661
747.8293
weight
   0.0000000   0.0000000   0.0000000   0.0020000
   0.0000000   0.0000000   0.1000000   0.0040000
   0.0000000   0.0000000   0.2000000   0.0040000
   0.0000000   0.0000000   0.3000000   0.0040000
   0.0000000   0.0000000   0.4000000   0.0040000
   0.0000000   0.0000000  -0.5000000   0.0020000
   0.0000000   0.1000000   0.0000000   0.0120000
   0.0000000   0.1000000   0.1000000   0.0240000
   0.0000000   0.1000000   0.2000000   0.0240000
   0.0000000   0.1000000   0.3000000   0.0240000
   0.0000000   0.1000000   0.4000000   0.0240000
   0.0000000   0.1000000  -0.5000000   0.0120000
   0.0000000   0.2000000   0.0000000   0.0120000
   0.0000000   0.2000000   0.1000000   0.0240000
   0.0000000   0.2000000   0.2000000   0.0240000
   0.0000000   0.2000000   0.3000000   0.0240000
   0.0000000   0.2000000   0.4000000   0.0240000
   0.0000000   0.2000000  -0.5000000   0.0120000
   0.0000000   0.3000000   0.0000000   0.0120000
   0.0000000   0.3000000   0.1000000   0.0240000
   0.0000000   0.3000000   0.2000000   0.0240000
   0.0000000   0.3000000   0.3000000   0.0240000
   0.0000000   0.3000000   0.4000000   0.0240000
   0.0000000   0.3000000  -0.5000000   0.0120000
   0.0000000   0.4000000   0.0000000   0.0120000
   0.0000000   0.4000000   0.1000000   0.0240000
   0.0000000   0.4000000   0.2000000   0.0240000
   0.0000000   0.4000000   0.3000000   0.0240000
   0.0000000   0.4000000   0.4000000   0.0240000
   0.0000000   0.4000000  -0.5000000   0.0120000
   0.0000000  -0.5000000   0.0000000   0.0060000
   0.0000000  -0.5000000   0.1000000   0.0120000
   0.0000000  -0.5000000   0.2000000   0.0120000
   0.0000000  -0.5000000   0.3000000   0.0120000
   0.0000000  -0.5000000   0.4000000   0.0120000
   0.0000000  -0.5000000  -0.5000000   0.0060000
   0.1000000   0.1000000   0.0000000   0.0120000
   0.1000000   0.1000000   0.1000000   0.0240000
   0.1000000   0.1000000   0.2000000   0.0240000
   0.1000000   0.1000000   0.3000000   0.0240000
   0.1000000   0.1000000   0.4000000   0.0240000
   0.1000000   0.1000000  -0.5000000   0.0120000
   0.1000000   0.2000000   0.0000000   0.0240000
   0.1000000   0.2000000   0.1000000   0.0480000
   0.1000000   0.2000000   0.2000000   0.0480000
   0.1000000   0.2000000   0.3000000   0.0480000
   0.1000000   0.2000000   0.4000000   0.0480000
   0.1000000   0.2000000  -0.5000000   0.0240000
   0.1000000   0.3000000   0.0000000   0.0240000
   0.1000000   0.3000000   0.1000000   0.0480000
   0.1000000   0.3000000   0.2000000   0.0480000
   0.1000000   0.3000000   0.3000000   0.0480000
   0.1000000   0.3000000   0.4000000   0.0480000
   0.1000000   0.3000000  -0.5000000   0.0240000
   0.1000000   0.4000000   0.0000000   0.0240000
   0.1000000   0.4000000   0.1000000   0.0480000
   0.1000000   0.4000000   0.2000000   0.0480000
   0.1000000   0.4000000   0.3000000   0.0480000
   0.1000000   0.4000000   0.4000000   0.0480000
   0.1000000   0.4000000  -0.5000000   0.0240000
   0.2000000   0.2000000   0.0000000   0.0120000
   0.2000000   0.2000000   0.1000000   0.0240000
   0.2000000   0.2000000   0.2000000   0.0240000
   0.2000000   0.2000000   0.3000000   0.0240000
   0.2000000   0.2000000   0.4000000   0.0240000
   0.2000000   0.2000000  -0.5000000   0.0120000
   0.2000000   0.3000000   0.0000000   0.0240000
   0.2000000   0.3000000   0.1000000   0.0480000
   0.2000000   0.3000000   0.2000000   0.0480000
   0.2000000   0.3000000   0.3000000   0.0480000
   0.2000000   0.3000000   0.4000000   0.0480000
   0.2000000   0.3000000  -0.5000000   0.0240000
   0.2000000   0.4000000   0.0000000   0.0120000
   0.2000000   0.4000000   0.1000000   0.0240000
   0.2000000   0.4000000   0.2000000   0.0240000
   0.2000000   0.4000000   0.3000000   0.0240000
   0.2000000   0.4000000   0.4000000   0.0240000
   0.2000000   0.4000000  -0.5000000   0.0120000
   0.3000000   0.3000000   0.0000000   0.0120000
   0.3000000   0.3000000   0.1000000   0.0240000
   0.3000000   0.3000000   0.2000000   0.0240000
   0.3000000   0.3000000   0.3000000   0.0240000
   0.3000000   0.3000000   0.4000000   0.0240000
   0.3000000   0.3000000  -0.5000000   0.0120000