Number of volumes (nv), q-vectors (nq), normal mode (np), formula units(nm)
10 84 6 1

P	=	-0.97	V	=	139.3106	E	=	-655.46737202
0.0 0.0 0.0
-0.0
0.0
0.0
218.4365
218.4365
301.3835
0.0 0.0 0.1
52.5654
52.5654
104.2131
212.3217
212.3217
296.4826
0.0 0.0 0.2
98.6308
98.6308
190.8682
190.8682
191.2821
284.0831
0.0 0.0 0.3
141.4653
141.4653
154.3642
154.3642
248.9447
260.573
0.0 0.0 0.4
111.9632
111.9632
180.8737
180.8737
212.4952
278.5616
0.0 0.0 -0.5
67.4825
67.4825
133.6686
207.5312
207.5312
293.3532
0.0 0.1 0.0
46.8606
60.8389
103.3982
225.0737
233.4794
297.1208
0.0 0.1 0.1
81.419
82.5831
136.828
219.5888
226.9625
293.3019
0.0 0.1 0.2
118.1172
123.037
200.314
202.24
206.1575
283.4903
0.0 0.1 0.3
156.0271
160.8865
167.568
172.3851
252.8444
263.1658
0.0 0.1 0.4
129.7843
134.7732
191.3382
196.4112
220.8068
278.8724
0.0 0.1 -0.5
92.3303
95.7843
156.7664
215.2864
222.0627
290.8763
0.0 0.2 0.0
93.2425
111.0627
187.0843
238.9974
263.0652
285.6915
0.0 0.2 0.1
111.1247
124.7887
204.0779
234.7956
252.2546
288.1994
0.0 0.2 0.2
147.0363
153.5838
219.8701
227.3726
240.3266
288.2382
0.0 0.2 0.3
184.1766
184.7305
194.0251
195.1073
271.3159
277.7387
0.0 0.2 0.4
158.6909
163.2142
212.8517
218.0605
251.2528
286.4721
0.0 0.2 -0.5
121.451
132.9293
214.4241
231.4827
245.7081
288.8899
0.0 0.3 0.0
136.7588
143.1494
238.6401
250.0337
270.611
283.3263
0.0 0.3 0.1
141.4311
154.4767
246.8
251.0241
256.8867
293.1849
0.0 0.3 0.2
159.318
179.5834
231.1413
235.2481
276.8406
301.2272
0.0 0.3 0.3
189.3338
199.6005
206.7103
214.4878
295.6163
298.9016
0.0 0.3 0.4
167.662
188.0932
221.9424
229.7238
283.8272
301.7953
0.0 0.3 -0.5
145.3471
161.4404
244.2515
249.0397
259.4885
296.4847
0.0 0.4 0.0
155.5856
173.3454
254.1538
255.8328
258.6883
284.8884
0.0 0.4 0.1
165.7146
168.998
247.1837
251.1216
272.2041
294.4221
0.0 0.4 0.2
169.37
189.0737
227.2956
240.6959
293.6422
306.464
0.0 0.4 0.3
188.8383
197.9073
214.6752
221.8837
306.5257
308.2332
0.0 0.4 0.4
173.2522
197.1354
218.8614
235.7393
298.8294
308.2303
0.0 0.4 -0.5
167.6089
172.0891
242.2983
248.7913
279.0551
298.8568
0.0 -0.5 0.0
155.2204
198.6507
244.0534
254.0814
261.0758
274.8516
0.0 -0.5 0.1
164.8451
186.6517
239.4759
250.7351
276.5652
287.0597
0.0 -0.5 0.2
175.3864
187.7385
223.731
239.8383
296.9351
303.1793
0.0 -0.5 0.3
187.7239
195.9985
213.4787
220.7618
306.31
307.1921
0.0 -0.5 0.4
176.2868
195.8022
215.9572
234.7854
301.0233
305.7177
0.0 -0.5 -0.5
171.0054
181.6025
236.1313
248.2421
283.6737
292.9519
0.1 0.1 0.0
66.2001
84.7451
140.6584
231.0478
245.1804
293.0851
0.1 0.1 0.1
94.1714
101.2631
164.5326
226.0923
237.8254
290.7501
0.1 0.1 0.2
133.3519
135.2323
208.6133
214.5854
216.871
284.0415
0.1 0.1 0.3
168.0806
171.9732
179.2264
183.6195
258.2551
267.1739
0.1 0.1 0.4
144.1217
146.869
200.498
206.6374
230.7899
280.417
0.1 0.1 -0.5
107.0533
110.6988
179.2483
222.2017
232.5352
289.2229
0.1 0.2 0.0
103.6677
129.7776
196.6906
247.3736
266.3651
282.1628
0.1 0.2 0.1
116.6341
142.0066
213.2258
243.608
253.2053
287.5044
0.1 0.2 0.2
147.3019
168.459
226.9722
229.9338
247.7036
289.9395
0.1 0.2 0.3
182.1567
190.6352
201.2173
207.3715
275.726
281.4236
0.1 0.2 0.4
158.1084
177.2776
217.6918
223.7546
257.6178
288.7688
0.1 0.2 -0.5
124.9214
149.4143
222.957
240.7352
246.1183
289.0538
0.1 0.3 0.0
142.5461
162.7479
233.7325
262.7843
267.4849
281.4755
0.1 0.3 0.1
144.0161
173.3967
245.6228
251.4753
263.4498
291.4253
0.1 0.3 0.2
157.2349
196.6201
225.8011
247.7527
276.9291
300.044
0.1 0.3 0.3
184.0471
193.66
222.8624
229.7958
294.8889
298.0668
0.1 0.3 0.4
164.387
203.9766
217.1883
243.1901
283.5127
300.7389
0.1 0.3 -0.5
146.4168
179.8626
243.7055
251.0869
264.1916
294.9162
0.1 0.4 0.0
175.9248
176.2466
249.4959
252.7663
267.4594
285.1529
0.1 0.4 0.1
168.3454
187.5526
241.7394
258.0685
274.081
292.4697
0.1 0.4 0.2
166.8588
208.6612
220.2828
254.8887
291.1067
303.8851
0.1 0.4 0.3
183.4932
191.7841
232.0848
238.5796
303.7342
305.4897
0.1 0.4 0.4
169.9223
211.5665
216.3246
250.7918
296.0864
305.6015
0.1 0.4 -0.5
166.4601
193.3186
236.0722
259.3763
278.4638
296.5492
0.2 0.2 0.0
129.3171
148.0208
226.5055
254.7958
273.017
278.9999
0.2 0.2 0.1
134.7238
159.4647
239.3975
250.9872
257.5306
290.5266
0.2 0.2 0.2
154.6695
184.3261
227.8824
240.0719
269.523
297.68
0.2 0.2 0.3
185.3233
195.2086
212.3772
219.7005
290.1623
293.993
0.2 0.2 0.4
163.4359
192.5945
218.8545
234.6263
277.0267
297.8825
0.2 0.2 -0.5
139.2595
166.3978
243.1575
248.0904
254.8705
293.6303
0.2 0.3 0.0
158.295
186.1231
236.6134
259.7638
275.4674
280.4792
0.2 0.3 0.1
155.6238
195.0895
245.9435
250.1959
275.4992
289.6863
0.2 0.3 0.2
160.784
214.4245
222.4795
259.5037
282.1239
300.0604
0.2 0.3 0.3
181.6975
190.4527
239.1155
245.2315
297.0622
299.6546
0.2 0.3 0.4
165.6702
210.6982
224.3457
256.3419
287.4682
301.238
0.2 0.3 -0.5
155.6365
200.7146
239.1203
256.3185
275.1893
293.7062
0.2 0.4 0.0
183.7188
210.7928
242.9011
245.4976
272.6223
290.8698
0.2 0.4 0.1
175.8063
218.5429
234.9959
257.2598
283.2918
289.3337
0.2 0.4 0.2
170.0152
213.0005
236.846
271.4364
288.1553
297.8504
0.2 0.4 0.3
180.5285
187.2134
256.0705
261.1818
298.1021
299.7577
0.2 0.4 0.4
171.2508
204.9879
243.0059
269.853
291.4558
299.7033
0.2 0.4 -0.5
172.8278
223.1645
229.4523
263.876
285.8237
290.585
0.3 0.3 0.0
179.2108
180.2399
249.7027
250.8441
268.2829
285.2653
0.3 0.3 0.1
170.7492
191.4306
240.1637
259.0521
275.1738
291.8242
0.3 0.3 0.2
167.69
212.0749
219.019
257.1215
291.3097
303.3095
0.3 0.3 0.3
182.9248
190.9514
235.0074
241.344
303.4809
305.1413
0.3 0.3 0.4
170.2548
210.5105
219.4738
253.1987
296.125
305.0926
0.3 0.3 -0.5
168.4103
197.0851
234.5848
260.9208
279.2193
295.8538
P	=	199.48	V	=	130.7091	E	=	-655.46186156
0.0 0.0 0.0
-0.0
0.0
0.0
241.2903
241.2903
353.3578
0.0 0.0 0.1
60.155
60.155
115.0352
234.595
234.595
345.6765
0.0 0.0 0.2
111.8435
111.8435
211.2936
211.2936
213.4519
326.8605
0.0 0.0 0.3
158.4181
158.4181
171.9587
171.9587
281.3983
295.4479
0.0 0.0 0.4
126.1226
126.1226
200.7764
200.7764
237.4905
319.2511
0.0 0.0 -0.5
76.6643
76.6643
147.2064
229.518
229.518
340.9292
0.0 0.1 0.0
49.0054
67.2126
115.962
248.6746
258.5267
348.0869
0.0 0.1 0.1
89.8196
90.9645
153.2136
242.5908
251.3703
341.7091
0.0 0.1 0.2
132.2932
136.9494
221.4824
226.2668
228.7045
325.9769
0.0 0.1 0.3
173.7754
179.2112
185.972
191.5267
285.8619
298.3772
0.0 0.1 0.4
144.8566
149.9154
211.976
218.1238
247.3227
319.4189
0.0 0.1 -0.5
103.0782
104.9648
174.6975
237.9846
246.1378
337.7798
0.0 0.2 0.0
98.6668
122.9597
210.8133
264.4796
293.2998
333.8467
0.0 0.2 0.1
119.4062
138.2748
229.8771
259.6494
282.2439
333.8729
0.0 0.2 0.2
161.3724
170.2507
242.9325
254.1613
270.5603
329.9893
0.0 0.2 0.3
204.452
204.5339
214.4806
216.7763
306.8919
314.7389
0.0 0.2 0.4
174.614
180.6264
235.3746
243.6135
282.8419
326.95
0.0 0.2 -0.5
131.1587
147.1069
241.1694
256.002
275.199
333.4295
0.0 0.3 0.0
146.8509
159.1382
271.2116
277.8098
314.7076
319.6155
0.0 0.3 0.1
153.2206
171.4253
273.9446
284.8907
293.257
335.3035
0.0 0.3 0.2
174.992
198.9092
260.6396
260.7275
314.0062
344.0156
0.0 0.3 0.3
210.4675
222.4176
228.9003
237.3404
335.8426
339.8552
0.0 0.3 0.4
184.5938
208.0633
249.7149
254.5587
321.803
344.2207
0.0 0.3 -0.5
158.032
178.8191
271.0449
283.2319
294.412
339.0962
0.0 0.4 0.0
174.1816
188.8283
283.9816
295.341
297.5193
326.8407
0.0 0.4 0.1
185.0192
185.7393
280.361
282.9169
312.4208
338.7379
0.0 0.4 0.2
187.9295
210.4291
257.2272
268.218
336.4268
352.4785
0.0 0.4 0.3
210.9235
221.4357
238.8718
246.7881
351.547
353.6909
0.0 0.4 0.4
192.4394
219.1081
247.0548
262.6782
342.2651
354.2555
0.0 0.4 -0.5
184.9141
191.7173
276.5398
277.6921
319.8135
343.8273
0.0 -0.5 0.0
175.2665
218.9409
279.4057
285.2083
303.3449
321.2315
0.0 -0.5 0.1
185.5058
208.0039
273.658
281.3433
319.849
334.1952
0.0 -0.5 0.2
196.9033
210.3338
253.9618
268.7887
342.8533
351.9366
0.0 -0.5 0.3
211.149
220.5912
238.9699
246.9999
354.5084
355.7988
0.0 -0.5 0.4
197.9271
219.0113
244.7017
263.1408
347.6495
354.6153
0.0 -0.5 -0.5
191.9486
203.2135
269.534
278.5459
327.5168
340.4937
0.1 0.1 0.0
69.5213
93.6674
157.9969
255.409
272.0997
343.079
0.1 0.1 0.1
101.4872
112.48
184.7839
249.8386
264.1088
338.3434
0.1 0.1 0.2
148.1379
149.6649
230.5705
239.4677
242.3265
326.2449
0.1 0.1 0.3
186.5931
191.0145
198.599
203.8753
292.0178
302.8686
0.1 0.1 0.4
160.0417
162.4454
221.9039
229.8208
259.0235
320.8655
0.1 0.1 -0.5
116.1675
122.8367
200.7395
245.629
258.4569
335.4117
0.1 0.2 0.0
110.0
143.5884
221.6233
274.5914
297.5303
329.4287
0.1 0.2 0.1
125.274
157.1801
239.9274
270.3566
284.3675
332.2096
0.1 0.2 0.2
161.3208
186.4419
253.2359
255.0521
279.5405
331.6357
0.1 0.2 0.3
201.8494
210.9851
223.4934
229.446
312.129
319.0741
0.1 0.2 0.4
173.6424
195.9092
243.5451
247.5699
290.5335
329.4094
0.1 0.2 -0.5
134.7833
165.184
250.1846
267.518
276.6024
332.8812
0.1 0.3 0.0
153.2567
180.7086
263.7402
294.9553
310.7625
317.864
0.1 0.3 0.1
156.0442
192.2935
274.8702
286.6603
297.8826
333.3537
0.1 0.3 0.2
172.3692
217.6928
254.5778
275.0318
314.7859
342.9157
0.1 0.3 0.3
204.1108
215.1935
247.3996
254.8021
335.4878
339.3321
0.1 0.3 0.4
180.6241
225.4682
244.476
269.9445
322.0528
343.3184
0.1 0.3 -0.5
159.1354
199.1887
274.962
281.7638
299.6851
337.4193
0.1 0.4 0.0
191.7015
196.998
282.2792
291.4649
304.5673
326.5834
0.1 0.4 0.1
185.0455
209.0647
275.465
290.1892
314.0521
336.2451
0.1 0.4 0.2
184.4943
232.3358
248.8989
284.9348
333.8276
349.4752
0.1 0.4 0.3
204.2221
213.8398
259.0242
266.1675
348.5172
350.6653
0.1 0.4 0.4
188.0577
236.6412
242.5379
280.2843
339.3944
351.2442
0.1 0.4 -0.5
183.3848
215.3521
268.5029
290.6955
319.3203
341.0212
0.2 0.2 0.0
138.4175
164.2082
255.7079
284.3292
313.8036
317.8324
0.2 0.2 0.1
145.5019
176.6892
268.2981
282.2299
292.2245
332.8102
0.2 0.2 0.2
169.4637
203.9883
255.955
266.559
305.3895
339.9272
0.2 0.2 0.3
205.5324
216.7623
235.5635
243.2853
329.3075
333.966
0.2 0.2 0.4
179.529
212.8439
245.6717
260.2442
313.7119
339.632
0.2 0.2 -0.5
150.9303
184.0964
270.5135
281.0343
288.2154
336.137
0.2 0.3 0.0
171.1022
206.8354
267.6012
300.8342
311.3693
317.9444
0.2 0.3 0.1
169.3154
216.6596
280.1634
282.2251
311.9693
331.6881
0.2 0.3 0.2
176.4229
237.424
251.8171
288.451
322.1981
343.6796
0.2 0.3 0.3
201.4551
211.6923
265.9915
272.5625
339.2597
342.3434
0.2 0.3 0.4
182.1273
235.4405
250.6854
285.0126
328.071
344.7638
0.2 0.3 -0.5
169.7719
222.636
272.5294
286.7949
312.6465
336.4578
0.2 0.4 0.0
200.7298
235.5095
276.6325
282.0728
312.2799
330.8843
0.2 0.4 0.1
193.1989
243.9156
268.2364
291.5335
324.7585
330.5027
0.2 0.4 0.2
187.5538
239.4277
265.5604
304.1322
331.2377
342.7092
0.2 0.4 0.3
200.3325
208.2159
286.7414
292.3432
342.7838
344.6845
0.2 0.4 0.4
189.0592
230.0097
272.0638
302.2003
335.0819
344.7562
0.2 0.4 -0.5
190.3013
248.5094
261.7302
297.9615
326.6483
333.7405
0.3 0.3 0.0
195.548
201.5836
282.8974
288.9311
305.8771
326.9601
0.3 0.3 0.1
187.9006
213.563
273.7539
291.5282
315.4251
335.7557
0.3 0.3 0.2
185.5192
236.1944
247.6351
287.6825
334.3971
349.0883
0.3 0.3 0.3
203.5985
212.9137
262.5494
269.5314
348.5714
350.6023
0.3 0.3 0.4
188.5095
236.1907
245.5397
283.24
339.7876
350.9513
0.3 0.3 -0.5
185.7333
219.7373
266.8393
292.6357
320.4293
340.4767
P	=	499.58	V	=	121.7587	E	=	-655.44111286
0.0 0.0 0.0
-0.0
0.0
0.0
268.3727
268.3727
415.4181
0.0 0.0 0.1
69.7532
69.7532
131.8568
261.1195
261.1195
404.8663
0.0 0.0 0.2
128.058
128.058
235.7474
235.7474
244.8234
379.4059
0.0 0.0 0.3
178.748
178.748
193.0717
193.0717
323.669
340.0557
0.0 0.0 0.4
143.4117
143.4117
224.5591
224.5591
271.9951
369.7357
0.0 0.0 -0.5
88.2444
88.2444
167.9996
255.7312
255.7312
398.5014
0.0 0.1 0.0
55.011
74.7809
130.6727
276.5887
288.0413
408.9815
0.0 0.1 0.1
101.9025
102.5891
174.0768
269.8985
280.2459
399.9647
0.0 0.1 0.2
149.4573
155.1599
246.7341
254.6513
259.3736
378.1011
0.0 0.1 0.3
194.9908
201.5813
207.9879
214.7392
328.2826
343.0336
0.0 0.1 0.4
163.0757
169.2136
236.5663
244.0825
282.5231
369.6117
0.0 0.1 -0.5
116.2207
118.8256
198.3996
264.9575
274.6619
394.5371
0.0 0.2 0.0
110.5562
137.0818
238.6337
294.5871
328.8014
391.604
0.0 0.2 0.1
134.172
154.2714
260.4948
289.0558
317.2994
389.2776
0.0 0.2 0.2
182.0753
190.0523
270.3185
286.419
307.416
380.9091
0.0 0.2 0.3
228.0975
230.7766
238.8521
244.3607
350.6444
360.1891
0.0 0.2 0.4
196.7909
201.3658
262.1224
274.82
321.5399
376.4601
0.0 0.2 -0.5
147.3106
163.956
273.1781
285.0279
309.8634
387.618
0.0 0.3 0.0
164.5235
178.1451
309.4732
310.7706
362.4868
368.1662
0.0 0.3 0.1
171.8984
191.3998
306.1513
324.7095
336.5443
386.5077
0.0 0.3 0.2
197.526
221.6875
290.8444
297.6809
358.0206
395.4165
0.0 0.3 0.3
239.1656
252.8405
255.3025
264.5895
383.9052
388.8777
0.0 0.3 0.4
208.5796
231.7027
284.1204
285.032
366.8964
395.161
0.0 0.3 -0.5
177.4053
199.2882
302.8416
324.2425
335.8356
390.5901
0.0 0.4 0.0
196.38
212.1496
319.6362
343.2864
344.1094
376.7684
0.0 0.4 0.1
207.7878
209.5553
315.3108
327.1575
359.9283
391.774
0.0 0.4 0.2
213.6398
235.5653
295.6009
301.1949
386.9132
407.5019
0.0 0.4 0.3
241.2582
253.361
267.7586
276.6195
405.0154
407.7924
0.0 0.4 0.4
219.0887
245.1024
283.7722
294.9707
393.5898
409.2563
0.0 0.4 -0.5
209.0918
214.818
312.2472
319.2692
367.9374
397.6589
0.0 -0.5 0.0
199.3001
247.1272
322.6272
323.9326
353.5225
376.3444
0.0 -0.5 0.1
209.9209
236.683
316.5172
318.174
371.2883
390.7583
0.0 -0.5 0.2
226.067
236.9233
292.6817
303.729
397.3415
410.3784
0.0 -0.5 0.3
243.1028
253.7875
269.496
278.5661
411.8686
413.7256
0.0 -0.5 0.4
227.5015
246.4747
282.0311
297.3623
402.9911
413.1431
0.0 -0.5 -0.5
216.6159
232.0835
311.5038
315.033
379.6072
397.6249
0.1 0.1 0.0
77.9718
104.257
178.2955
284.1956
303.7378
402.8706
0.1 0.1 0.1
114.5816
125.9568
209.378
277.9818
295.0801
395.6802
0.1 0.1 0.2
166.6109
168.7513
256.6679
268.396
275.7508
377.9417
0.1 0.1 0.3
208.6925
214.6228
221.8788
228.8176
334.7171
347.6578
0.1 0.1 0.4
179.3064
182.9503
247.3609
257.674
295.1981
370.7734
0.1 0.1 -0.5
130.9585
137.5262
227.4409
273.4206
289.0597
391.3482
0.1 0.2 0.0
123.1224
159.9457
250.586
306.929
334.154
386.2235
0.1 0.2 0.1
140.4129
175.0951
271.1156
302.3874
320.7145
386.6401
0.1 0.2 0.2
181.6728
207.7129
282.28
287.7445
317.9867
382.334
0.1 0.2 0.3
227.4772
236.1178
251.1724
256.0467
356.5422
365.003
0.1 0.2 0.4
195.4471
218.0188
274.6361
276.6531
330.4936
378.9033
0.1 0.2 -0.5
151.0324
183.8238
281.7951
300.0329
312.481
386.259
0.1 0.3 0.0
171.4502
201.9169
297.952
333.9045
360.9361
363.3641
0.1 0.3 0.1
174.6427
214.5273
308.3311
328.4875
339.8583
384.1947
0.1 0.3 0.2
193.9323
242.5092
290.3283
307.8822
359.6399
394.342
0.1 0.3 0.3
231.228
243.6164
277.0609
284.9025
383.9496
388.6709
0.1 0.3 0.4
203.484
250.977
279.0482
302.0512
367.8198
394.3699
0.1 0.3 -0.5
178.1727
221.9185
309.2257
321.2376
342.1585
388.6814
0.1 0.4 0.0
215.0312
221.4482
319.5763
339.3536
349.6879
376.0819
0.1 0.4 0.1
207.995
234.7021
315.7503
329.5521
361.7626
388.6459
0.1 0.4 0.2
208.5844
260.2466
285.5044
321.1798
384.2762
403.9643
0.1 0.4 0.3
232.5077
243.5405
291.4902
299.4352
401.692
404.4114
0.1 0.4 0.4
212.9731
266.3352
276.7408
315.8415
390.5937
405.7563
0.1 0.4 -0.5
206.4338
241.4466
308.2924
328.7485
367.7076
394.2441
0.2 0.2 0.0
154.9079
183.3685
289.2727
319.9106
354.8678
372.0339
0.2 0.2 0.1
162.9203
197.0131
301.0423
319.9565
333.5698
384.476
0.2 0.2 0.2
190.7634
227.2284
289.4387
299.4214
348.0204
390.813
0.2 0.2 0.3
232.552
244.6749
263.8188
271.7504
376.2538
381.978
0.2 0.2 0.4
202.2456
236.8901
278.9352
291.362
357.4488
389.8995
0.2 0.2 -0.5
169.029
204.9856
302.2211
320.338
328.3883
387.7069
0.2 0.3 0.0
191.2859
231.2085
302.783
351.1434
354.4989
362.6784
0.2 0.3 0.1
189.4014
241.8676
316.2773
324.477
356.2271
382.2094
0.2 0.3 0.2
198.3349
264.5943
288.9125
322.8468
369.6141
395.8263
0.2 0.3 0.3
228.4407
240.1926
298.2554
305.311
389.4573
393.2071
0.2 0.3 0.4
205.1261
265.4237
284.0452
319.1639
376.1732
396.7716
0.2 0.3 -0.5
190.0328
248.2271
313.528
322.1479
357.8064
387.7375
0.2 0.4 0.0
224.817
264.4185
315.0391
327.6437
359.4826
379.1115
0.2 0.4 0.1
216.7553
273.433
309.9046
330.9109
373.9194
380.7051
0.2 0.4 0.2
211.3142
272.7351
300.3845
342.8453
382.2691
396.2649
0.2 0.4 0.3
227.5378
236.7913
323.3555
329.5427
395.791
398.0757
0.2 0.4 0.4
213.4141
262.4908
306.9225
340.6883
386.6747
398.4896
0.2 0.4 -0.5
213.7446
278.1791
302.3198
337.2434
375.7138
385.5811
0.3 0.3 0.0
219.3851
226.6873
320.6603
336.178
351.4907
376.8795
0.3 0.3 0.1
211.2606
239.8877
314.52
330.6886
363.5554
388.3469
0.3 0.3 0.2
209.7745
264.6522
284.3067
324.4911
385.2878
403.8041
0.3 0.3 0.3
231.8206
242.53
295.7112
303.4946
402.1058
404.6813
0.3 0.3 0.4
213.5211
267.7212
278.5047
319.4188
391.4105
405.7186
0.3 0.3 -0.5
209.1427
246.522
306.7388
330.9038
369.28
393.8815
P	=	749.76	V	=	116.2127	E	=	-655.41772033
0.0 0.0 0.0
-0.0
-0.0
-0.0
284.3283
284.3283
456.8683
0.0 0.0 0.1
72.6939
72.6939
143.5515
276.5463
276.5463
444.4502
0.0 0.0 0.2
134.3946
134.3946
249.4979
249.4979
265.6293
414.1945
0.0 0.0 0.3
188.807
188.807
203.9437
203.9437
351.0881
368.977
0.0 0.0 0.4
150.6125
150.6125
237.7612
237.7612
294.542
403.002
0.0 0.0 -0.5
91.8562
91.8562
182.1601
270.8851
270.8851
437.0162
0.0 0.1 0.0
59.2654
78.3229
139.8806
293.2138
305.8013
449.6287
0.0 0.1 0.1
107.4702
108.9578
187.4998
285.9613
297.4429
438.9209
0.0 0.1 0.2
157.2016
164.2224
261.1313
270.1868
280.53
412.6173
0.0 0.1 0.3
206.0114
213.4654
219.7308
227.3381
355.7946
371.9944
0.0 0.1 0.4
171.574
178.8173
250.4383
258.9383
305.4306
402.6893
0.0 0.1 -0.5
121.6416
126.2055
213.8144
280.7295
291.565
432.5068
0.0 0.2 0.0
118.8159
143.947
256.1426
312.8217
350.8011
430.0355
0.0 0.2 0.1
144.0512
162.3225
280.035
306.6831
338.7995
426.3519
0.0 0.2 0.2
194.3592
200.5859
286.3135
305.7865
331.3333
414.6252
0.0 0.2 0.3
241.2517
245.9158
252.5786
260.2988
379.0086
389.682
0.0 0.2 0.4
209.6064
212.5106
277.6313
293.428
346.5816
409.0677
0.0 0.2 -0.5
157.6997
172.52
293.6906
302.3365
331.0626
423.8946
0.0 0.3 0.0
176.4645
187.8859
330.8275
333.6741
389.4375
403.4508
0.0 0.3 0.1
184.4559
202.2824
325.6322
350.1174
363.7768
420.511
0.0 0.3 0.2
211.5886
234.8094
308.7514
320.4691
386.6667
429.1068
0.0 0.3 0.3
256.2602
270.6268
270.97
280.4078
415.075
420.6599
0.0 0.3 0.4
223.1519
245.3354
301.5499
306.6612
396.1875
428.4283
0.0 0.3 -0.5
190.2196
210.6673
322.0064
349.8077
362.6952
424.6445
0.0 0.4 0.0
208.3823
227.4653
341.203
372.1943
375.9104
408.3465
0.0 0.4 0.1
220.809
225.18
336.4304
355.3516
390.478
426.001
0.0 0.4 0.2
229.785
250.514
319.5184
320.8305
419.725
443.2334
0.0 0.4 0.3
259.5701
272.6308
284.71
294.0747
439.7251
442.8815
0.0 0.4 0.4
235.4936
260.4805
306.4903
314.1005
426.9337
444.9609
0.0 0.4 -0.5
224.8378
228.269
333.0963
346.4186
398.9916
432.5017
0.0 -0.5 0.0
212.7791
265.2518
345.1079
352.6886
384.9845
411.3351
0.0 -0.5 0.1
224.2652
254.9856
340.3546
343.8858
404.0046
427.127
0.0 -0.5 0.2
244.1533
252.8812
316.8716
324.5213
432.517
448.3134
0.0 -0.5 0.3
262.4588
273.9256
287.3788
296.996
449.0965
451.3287
0.0 -0.5 0.4
245.6198
262.7981
305.1977
317.6155
438.7778
451.1534
0.0 -0.5 -0.5
231.3045
250.4141
337.0013
338.1948
412.8857
434.4941
0.1 0.1 0.0
83.9205
109.3455
191.0015
301.499
323.0229
442.7479
0.1 0.1 0.1
122.9225
132.2714
225.0198
294.7005
313.7873
434.0179
0.1 0.1 0.2
175.6878
179.1842
271.717
285.2874
297.6836
412.1812
0.1 0.1 0.3
220.5612
227.5329
234.7322
242.7604
362.4071
376.7151
0.1 0.1 0.4
188.9464
193.9663
261.9123
273.9063
318.6604
403.666
0.1 0.1 -0.5
139.738
144.4
244.5495
289.8379
307.4636
428.7699
0.1 0.2 0.0
132.2183
168.3837
268.5106
326.9695
356.8504
423.964
0.1 0.2 0.1
150.5629
184.6134
290.6277
322.2886
342.9861
423.0746
0.1 0.2 0.2
193.8197
219.4907
299.317
307.653
342.9319
415.8581
0.1 0.2 0.3
242.0621
250.2448
267.4402
271.5618
385.3275
394.7916
0.1 0.2 0.4
208.0897
230.3296
291.7927
295.2633
356.3766
411.4519
0.1 0.2 -0.5
161.5493
193.8136
301.2367
320.6265
334.4323
421.9777
0.1 0.3 0.0
183.7758
213.4545
318.6993
358.7138
387.9587
398.0324
0.1 0.3 0.1
187.0882
227.2003
328.7155
354.583
366.961
417.817
0.1 0.3 0.2
207.2727
257.1797
311.8105
328.2055
388.8683
427.977
0.1 0.3 0.3
247.0465
260.0888
294.9398
302.9616
415.3691
420.6321
0.1 0.3 0.4
217.2114
266.0311
299.8852
321.6153
397.5878
427.6472
0.1 0.3 -0.5
190.7045
235.055
329.4922
346.5621
369.6467
422.4674
0.1 0.4 0.0
230.4398
235.3671
342.0301
370.5583
378.3257
407.5032
0.1 0.4 0.1
222.8558
250.1287
339.5639
355.4299
392.5308
422.4209
0.1 0.4 0.2
223.5544
277.2561
307.7508
343.5925
417.1079
439.2976
0.1 0.4 0.3
249.1646
260.9523
311.2208
319.5916
436.1846
439.2292
0.1 0.4 0.4
228.0974
283.7608
297.997
337.6623
423.8853
441.0893
0.1 0.4 -0.5
221.3007
257.2585
332.4232
353.1009
398.9911
428.646
0.2 0.2 0.0
166.1517
193.432
309.7868
342.3833
380.5813
407.8773
0.2 0.2 0.1
174.6088
208.2617
320.858
344.1024
359.3777
418.9689
0.2 0.2 0.2
203.8473
240.693
308.7537
320.283
375.762
424.2469
0.2 0.2 0.3
248.2623
260.7194
280.7094
288.6566
406.6866
413.0963
0.2 0.2 0.4
215.7953
250.8397
298.5061
310.5426
385.8518
422.7797
0.2 0.2 -0.5
180.919
216.7311
321.3995
344.8784
354.2155
421.9829
0.2 0.3 0.0
204.8849
245.1511
324.1414
381.9729
384.1429
390.8054
0.2 0.3 0.1
202.8259
256.7177
338.1008
351.4317
384.9087
415.1566
0.2 0.3 0.2
211.988
280.9043
311.7063
344.0138
400.5365
429.7411
0.2 0.3 0.3
244.1745
256.7263
317.9733
325.2488
421.9921
426.1181
0.2 0.3 0.4
219.0228
282.6713
305.1234
340.0807
407.5004
430.524
0.2 0.3 -0.5
203.4089
263.4426
338.6214
344.598
387.1175
421.1741
0.2 0.4 0.0
240.8133
281.8244
338.542
357.2679
388.8566
410.1743
0.2 0.4 0.1
232.2837
291.4847
336.1772
355.5115
405.4248
413.2204
0.2 0.4 0.2
226.1719
292.3857
322.5508
367.0106
415.5011
430.8489
0.2 0.4 0.3
243.4004
253.3587
346.0354
352.5293
430.1026
432.5612
0.2 0.4 0.4
228.2302
281.6725
328.8014
364.615
420.2379
433.1719
0.2 0.4 -0.5
229.0862
296.4007
327.7786
361.8253
407.5319
418.9774
0.3 0.3 0.0
235.1066
241.1344
343.4071
366.9271
380.3812
408.6367
0.3 0.3 0.1
226.3756
255.8224
339.0587
356.0414
394.5775
422.2101
0.3 0.3 0.2
224.8404
282.0511
306.6211
347.2668
418.3939
439.2629
0.3 0.3 0.3
248.4203
259.8735
315.9217
324.1328
436.8248
439.7077
0.3 0.3 0.4
228.6992
285.9355
299.3946
341.6579
424.968
441.2005
0.3 0.3 -0.5
224.2295
262.8351
331.1632
355.1985
400.8458
428.3661
P	=	999.7	V	=	111.7048	E	=	-655.39101796
0.0 0.0 0.0
0.0
0.0
0.0
298.3948
298.3948
492.9687
0.0 0.0 0.1
73.4717
73.4717
152.9229
289.9691
289.9691
478.9151
0.0 0.0 0.2
139.7412
139.7412
262.092
262.092
283.7479
445.0017
0.0 0.0 0.3
199.3391
199.3391
215.1961
215.1961
376.0488
395.2779
0.0 0.0 0.4
157.4592
157.4592
250.2907
250.2907
314.5407
432.7574
0.0 0.0 -0.5
93.3389
93.3389
193.7105
284.1061
284.1061
470.6425
0.0 0.1 0.0
62.1709
81.097
147.7372
307.8106
321.3733
485.0016
0.0 0.1 0.1
110.376
113.7857
198.5888
299.929
312.3945
472.8277
0.0 0.1 0.2
163.5408
171.82
274.1603
284.1092
299.1075
443.1788
0.0 0.1 0.3
216.8591
225.0358
231.2738
239.579
380.8259
398.3094
0.0 0.1 0.4
179.1599
187.4366
263.3291
272.6412
325.7972
432.2636
0.0 0.1 -0.5
124.9721
131.3649
226.6438
294.4787
306.2934
465.6509
0.0 0.2 0.0
124.9195
149.4738
271.2153
328.7392
369.991
463.4282
0.0 0.2 0.1
151.4427
168.3264
296.7918
322.0171
357.4616
458.6653
0.0 0.2 0.2
204.6259
209.0848
300.5099
322.8032
352.4209
444.5181
0.0 0.2 0.3
253.1193
259.588
265.0653
274.7082
404.6797
416.3549
0.0 0.2 0.4
220.6674
221.875
291.5544
309.9484
368.8758
438.208
0.0 0.2 -0.5
165.6324
178.8771
311.3251
317.4248
349.4772
455.6292
0.0 0.3 0.0
186.0788
196.0344
348.3379
354.7547
413.0165
434.1169
0.0 0.3 0.1
194.5817
211.1057
342.6313
372.2783
387.368
450.4382
0.0 0.3 0.2
223.5484
245.6482
324.4954
340.4115
412.0119
458.9237
0.0 0.3 0.3
271.4235
283.9966
287.0506
294.3149
442.9196
449.0413
0.0 0.3 0.4
235.7589
256.7801
316.9253
325.6996
422.1898
457.9798
0.0 0.3 -0.5
200.6435
219.8388
338.7526
371.9636
386.2601
454.614
0.0 0.4 0.0
218.8207
240.6006
360.144
397.6372
403.6871
436.2156
0.0 0.4 0.1
231.9743
238.5602
354.9378
380.0306
417.4997
456.176
0.0 0.4 0.2
243.8982
263.4025
338.0848
340.5995
448.8161
474.7849
0.0 0.4 0.3
275.8589
289.7493
299.6418
309.4794
470.4821
473.9531
0.0 0.4 0.4
249.9398
273.8247
326.5816
330.9554
456.4893
476.5216
0.0 0.4 -0.5
238.3626
239.7649
351.3677
370.2511
426.482
463.2082
0.0 -0.5 0.0
224.8204
281.2863
364.9875
378.0215
412.8806
442.427
0.0 -0.5 0.1
237.0166
271.154
359.8566
368.0109
433.057
459.4249
0.0 -0.5 0.2
260.2876
267.1781
338.2544
342.8299
463.6885
481.9079
0.0 -0.5 0.3
279.7807
291.8887
303.4703
313.5133
481.9877
484.5456
0.0 -0.5 0.4
261.8295
277.4723
325.7318
335.5361
470.4427
484.786
0.0 -0.5 -0.5
244.3619
266.6326
356.291
361.7467
442.4278
467.207
0.1 0.1 0.0
88.1015
113.3718
201.8803
316.6457
339.8844
477.4276
0.1 0.1 0.1
128.888
136.6017
238.1818
309.2377
330.0468
467.3847
0.1 0.1 0.2
182.9738
187.9613
285.2136
300.3117
316.9722
442.5045
0.1 0.1 0.3
231.7669
239.6182
246.9246
255.834
387.5762
403.0915
0.1 0.1 0.4
197.2628
203.6354
275.2223
288.6162
339.5536
433.0706
0.1 0.1 -0.5
146.0859
149.2172
259.002
304.1494
323.4856
461.4414
0.1 0.2 0.0
139.054
175.2139
283.9606
344.4655
376.6593
456.739
0.1 0.2 0.1
158.2202
191.9627
307.2818
339.7677
362.3037
454.8604
0.1 0.2 0.2
203.9406
229.0418
314.3323
325.1416
364.9607
445.5803
0.1 0.2 0.3
255.0746
262.7364
282.0601
285.5067
411.3303
421.6827
0.1 0.2 0.4
218.9459
240.609
306.7068
312.0823
379.4267
440.5189
0.1 0.2 -0.5
169.6184
201.4924
317.6983
338.9083
353.4836
453.2533
0.1 0.3 0.0
193.7532
223.0791
336.6074
380.5486
411.6141
428.1338
0.1 0.3 0.1
197.1179
237.5981
346.3754
377.2469
390.7423
447.3751
0.1 0.3 0.2
218.5424
269.3638
330.3845
346.2822
414.7822
457.722
0.1 0.3 0.3
260.9752
274.5157
310.6106
318.8017
443.4554
449.1814
0.1 0.3 0.4
229.012
278.6762
318.1455
338.9019
424.0622
457.1903
0.1 0.3 -0.5
200.8683
245.7958
347.0374
368.6752
393.8416
452.165
0.1 0.4 0.0
243.6326
247.3555
361.5304
397.7504
403.6699
435.2233
0.1 0.4 0.1
235.4492
263.3929
359.7422
378.6816
419.7633
452.17
0.1 0.4 0.2
236.5123
291.9037
327.2853
363.359
446.261
470.486
0.1 0.4 0.3
263.9085
276.3229
328.6036
337.3454
466.799
470.1023
0.1 0.4 0.4
241.3117
298.7558
316.8465
356.8998
453.4469
472.325
0.1 0.4 -0.5
233.9288
270.8263
353.1133
374.8834
426.7038
458.9329
0.2 0.2 0.0
175.0464
201.7544
327.4372
362.155
403.0515
439.0013
0.2 0.2 0.1
183.8377
217.3177
337.9227
365.3128
381.7265
449.2555
0.2 0.2 0.2
214.8433
251.7774
325.3039
338.9516
400.3138
453.8582
0.2 0.2 0.3
262.1169
274.7293
295.6556
303.6057
433.9657
440.9773
0.2 0.2 0.4
227.4223
262.5161
315.4036
327.7901
411.1044
452.0374
0.2 0.2 -0.5
190.3963
226.1463
338.0763
366.1809
376.8225
452.114
0.2 0.3 0.0
216.1572
256.861
342.6582
406.1504
412.7798
415.4995
0.2 0.3 0.1
213.8744
269.1006
357.0292
374.8789
410.2906
444.0753
0.2 0.3 0.2
223.5914
294.5965
331.7337
362.5428
428.0239
459.679
0.2 0.3 0.3
258.027
271.2472
335.1327
342.6237
451.0345
455.4597
0.2 0.3 0.4
231.0016
297.1881
323.8061
358.3848
435.4025
460.4232
0.2 0.3 -0.5
214.4554
276.105
359.4649
365.2139
413.069
450.5153
0.2 0.4 0.0
254.5365
296.7045
358.9793
382.9872
414.7001
437.65
0.2 0.4 0.1
245.4609
306.9085
359.0806
377.0222
433.256
441.9069
0.2 0.4 0.2
238.9949
309.2478
342.1508
388.1757
445.0976
461.3369
0.2 0.4 0.3
257.467
268.0316
365.8611
372.6288
460.652
463.2173
0.2 0.4 0.4
241.1516
298.3883
347.9999
385.5732
450.1415
463.8249
0.2 0.4 -0.5
242.1117
311.9699
350.0933
383.3026
435.7988
448.3108
0.3 0.3 0.0
248.6175
253.596
363.1552
393.7264
405.9648
436.6767
0.3 0.3 0.1
239.2282
269.5607
359.9069
378.8074
422.0466
452.0532
0.3 0.3 0.2
237.9029
297.0713
326.2594
367.3214
447.7962
470.5645
0.3 0.3 0.3
263.1277
275.2018
333.7341
342.313
467.635
470.7602
0.3 0.3 0.4
241.9786
301.5301
318.0723
361.2449
454.7679
472.566
0.3 0.3 -0.5
237.0826
276.8769
352.245
376.8056
428.8188
458.7383
P	=	1499.91	V	=	104.677	E	=	-655.3318955
0.0 0.0 0.0
-0.0
0.0
0.0
323.7079
323.7079
554.2897
0.0 0.0 0.1
80.5501
80.5501
167.8868
314.7149
314.7149
537.5168
0.0 0.0 0.2
151.4464
151.4464
284.0318
284.0318
312.8614
496.991
0.0 0.0 0.3
215.2104
215.2104
232.1431
232.1431
416.9466
438.596
0.0 0.0 0.4
169.8758
169.8758
271.211
271.211
346.6549
482.7701
0.0 0.0 -0.5
101.5474
101.5474
211.9706
308.4937
308.4937
527.8485
0.0 0.1 0.0
66.0866
87.0416
161.7068
333.9596
349.087
545.0779
0.0 0.1 0.1
119.6518
123.2543
218.296
325.4877
339.5276
530.5252
0.0 0.1 0.2
176.9464
186.2851
297.0219
308.399
329.7105
494.8123
0.0 0.1 0.3
234.1205
243.391
249.5202
258.9516
421.9329
441.6941
0.0 0.1 0.4
193.2497
202.6136
285.2332
295.8816
358.9917
482.0086
0.0 0.1 -0.5
135.2271
142.1934
248.6364
319.674
333.0583
522.0945
0.0 0.2 0.0
133.4106
160.8915
297.814
357.0545
403.7414
520.0933
0.0 0.2 0.1
163.5132
181.9244
326.559
349.7127
390.5476
513.8531
0.0 0.2 0.2
222.1842
226.1612
325.7471
352.3974
388.4757
495.3724
0.0 0.2 0.3
273.5909
282.1526
286.375
298.5522
447.4298
460.7977
0.0 0.2 0.4
239.2593
239.5961
315.9552
338.327
406.4313
487.5508
0.0 0.2 -0.5
179.0182
193.2506
342.3761
344.7542
382.1617
509.9443
0.0 0.3 0.0
199.9679
212.0593
379.4092
391.5961
454.4601
486.0075
0.0 0.3 0.1
210.5891
228.8448
373.0937
410.7277
428.3444
502.2782
0.0 0.3 0.2
243.3038
266.4645
352.7136
374.669
455.5903
510.263
0.0 0.3 0.3
296.4236
307.9652
313.7162
319.0463
490.115
497.1597
0.0 0.3 0.4
256.4484
278.2192
344.3917
358.2203
466.5825
508.6368
0.0 0.3 -0.5
217.5262
238.2324
368.8602
410.1634
427.4056
506.5481
0.0 0.4 0.0
238.3684
260.2555
393.784
441.9122
450.3852
485.1463
0.0 0.4 0.1
252.9792
259.5736
388.0142
422.0568
464.2831
508.7402
0.0 0.4 0.2
266.744
287.1924
369.0402
376.4059
498.7272
529.332
0.0 0.4 0.3
302.4529
317.8849
326.4848
337.0715
523.0261
527.084
0.0 0.4 0.4
273.2877
298.2121
360.5409
361.1891
507.0518
530.9013
0.0 0.4 -0.5
259.9239
261.3397
384.111
410.9828
473.9311
516.5946
0.0 -0.5 0.0
246.6041
305.9239
400.3277
420.2202
461.6459
496.5812
0.0 -0.5 0.1
260.1155
296.6982
394.6785
408.5666
483.4396
515.4284
0.0 -0.5 0.2
286.2119
292.8456
374.0424
375.5864
517.3035
539.7597
0.0 -0.5 0.3
307.82
321.1269
332.1138
342.9021
538.3134
541.4213
0.0 -0.5 0.4
287.8603
303.7005
359.9512
367.5781
524.7764
542.5824
0.0 -0.5 -0.5
267.9725
292.4862
390.8003
401.4342
493.4928
523.8055
0.1 0.1 0.0
93.8012
121.8283
221.1691
343.6967
369.7026
536.3142
0.1 0.1 0.1
139.2779
147.7447
261.7926
335.6969
359.2537
524.2149
0.1 0.1 0.2
197.8905
203.8401
309.0188
326.5451
349.3471
493.8237
0.1 0.1 0.3
250.2564
259.1966
266.9196
277.0614
429.069
446.6857
0.1 0.1 0.4
212.8349
220.3463
298.1382
313.7699
374.0867
482.6055
0.1 0.1 -0.5
157.8716
161.2677
284.3839
330.2582
352.3107
517.1504
0.1 0.2 0.0
148.6367
188.8381
310.9692
375.7171
411.4378
512.3416
0.1 0.2 0.1
170.6224
207.573
336.2853
371.5799
396.3538
509.25
0.1 0.2 0.2
221.1396
247.8191
340.9443
355.5367
402.7404
496.269
0.1 0.2 0.3
276.6507
284.0724
306.7944
309.5132
454.8014
466.6481
0.1 0.2 0.4
237.1235
259.9362
332.7525
341.1411
418.4261
489.8562
0.1 0.2 -0.5
183.1238
217.8184
346.1921
372.1447
387.0881
506.9014
0.1 0.3 0.0
208.2437
241.4017
367.598
419.3289
453.2273
479.07
0.1 0.3 0.1
213.0414
257.6745
377.3752
416.4398
432.5541
498.6354
0.1 0.3 0.2
237.2177
292.2234
362.1567
378.5608
459.3243
508.9759
0.1 0.3 0.3
284.0477
298.6369
338.26
346.686
491.0969
497.6316
0.1 0.3 0.4
248.4423
301.9513
349.3767
369.5815
469.2647
507.8703
0.1 0.3 -0.5
217.4071
266.5187
378.0198
406.983
436.1832
503.6692
0.1 0.4 0.0
263.4794
269.2398
395.6499
443.4997
448.135
483.9152
0.1 0.4 0.1
255.7307
287.2143
394.4933
419.2337
467.0148
504.06
0.1 0.4 0.2
257.6905
318.2305
360.7054
398.3226
496.2444
524.4419
0.1 0.4 0.3
288.093
301.7244
359.2605
368.5985
519.0791
522.8881
0.1 0.4 0.4
262.8244
325.3162
349.1673
390.899
503.9858
526.1682
0.1 0.4 -0.5
254.4618
295.2994
388.5189
413.4384
474.5789
511.6464
0.2 0.2 0.0
187.8044
217.9845
357.9908
397.4763
442.5372
491.7211
0.2 0.2 0.1
198.5603
235.394
367.9451
402.6965
420.7664
501.5345
0.2 0.2 0.2
233.2214
272.9233
354.1755
371.732
442.5358
504.7352
0.2 0.2 0.3
285.1362
298.331
321.7747
329.7865
480.061
488.0955
0.2 0.2 0.4
246.6933
284.2103
344.2838
358.3715
454.1588
502.0752
0.2 0.2 -0.5
205.9387
244.9106
367.7779
403.1116
416.5601
504.2056
0.2 0.3 0.0
232.8063
278.4972
374.5479
448.8702
459.0461
461.1765
0.2 0.3 0.1
231.3562
292.2491
389.7976
415.222
455.0172
494.388
0.2 0.3 0.2
242.609
319.7636
366.2048
395.3024
475.2229
511.3859
0.2 0.3 0.3
280.8222
295.3523
365.4729
373.2578
500.4357
505.4221
0.2 0.3 0.4
250.5391
322.8479
356.4746
390.7355
483.0597
511.8434
0.2 0.3 -0.5
232.2953
299.7857
393.5185
403.1106
458.449
501.51
0.2 0.4 0.0
275.5026
323.2423
394.1466
426.2688
460.257
485.943
0.2 0.4 0.1
266.5246
334.608
398.1736
414.1236
481.927
492.0774
0.2 0.4 0.2
259.8271
338.1858
376.7837
425.2756
495.8463
514.1111
0.2 0.4 0.3
280.3252
292.0903
400.6112
407.8185
512.7539
515.5932
0.2 0.4 0.4
262.0353
326.7686
381.9104
422.3563
501.2113
516.6695
0.2 0.4 -0.5
263.201
339.9687
388.4159
420.432
485.0362
499.4226
0.3 0.3 0.0
269.0308
276.1907
397.6651
438.7856
450.8841
485.8991
0.3 0.3 0.1
259.9283
294.105
395.487
418.7754
469.7078
504.1149
0.3 0.3 0.2
259.2248
323.9393
359.8419
402.751
498.1985
524.7184
0.3 0.3 0.3
287.2088
300.4891
365.0916
374.2709
520.2617
523.8669
0.3 0.3 0.4
263.5677
328.688
350.4218
395.8214
505.7138
526.6377
0.3 0.3 -0.5
257.9775
302.0616
388.2928
415.025
477.134
511.6034
P	=	1999.8	V	=	99.2989	E	=	-655.26826958
0.0 0.0 0.0
-0.0
0.0
0.0
343.9898
343.9898
605.8821
0.0 0.0 0.1
84.9161
84.9161
180.0668
334.5842
334.5842
586.8881
0.0 0.0 0.2
159.462
159.462
301.6689
301.6689
337.1253
540.973
0.0 0.0 0.3
227.4101
227.4101
245.396
245.396
451.5645
475.2797
0.0 0.0 0.4
178.6466
178.6466
288.0092
288.0092
373.5213
525.1674
0.0 0.0 -0.5
106.6375
106.6375
226.8661
328.1042
328.1042
576.1217
0.0 0.1 0.0
68.8138
91.1731
173.2882
354.9623
371.4138
595.6117
0.0 0.1 0.1
126.1306
130.3268
234.551
346.0938
361.4914
579.1454
0.0 0.1 0.2
186.6012
197.1171
315.4122
328.0759
355.3408
538.4995
0.0 0.1 0.3
247.3623
257.7396
263.716
274.2606
456.7291
478.4237
0.0 0.1 0.4
203.5242
214.0544
302.7865
314.6735
386.8499
524.175
0.0 0.1 -0.5
142.3733
150.2131
266.7982
340.0175
354.77
569.7381
0.0 0.2 0.0
139.7797
169.1409
320.0186
379.9136
431.2561
567.7115
0.0 0.2 0.1
173.1981
192.2348
351.4962
372.213
417.7157
560.3847
0.0 0.2 0.2
236.3336
239.259
346.1031
376.6785
418.8445
538.4106
0.0 0.2 0.3
289.3832
300.2696
302.9414
317.76
483.533
498.3363
0.0 0.2 0.4
253.138
254.1592
335.4953
361.5597
438.0514
529.3466
0.0 0.2 -0.5
189.8212
204.2302
366.9902
368.3856
409.0848
555.83
0.0 0.3 0.0
211.0407
224.253
404.6258
422.5816
488.7426
529.5328
0.0 0.3 0.1
223.8519
242.9345
397.9867
442.982
462.6311
546.0268
0.0 0.3 0.2
259.7516
283.1118
375.6014
403.1436
492.4893
553.6305
0.0 0.3 0.3
316.9322
326.8125
335.5989
338.5405
529.8751
537.6814
0.0 0.3 0.4
273.5471
295.2276
366.5168
385.221
504.088
551.415
0.0 0.3 -0.5
231.6138
252.9698
393.4991
441.887
462.3095
550.4123
0.0 0.4 0.0
254.0069
276.4448
421.2209
479.3141
489.4994
526.2265
0.0 0.4 0.1
270.2271
277.1744
415.1429
457.2502
504.0596
553.0604
0.0 0.4 0.2
285.9494
306.7588
394.3431
406.4181
541.062
575.4145
0.0 0.4 0.3
324.5434
341.2454
348.1297
359.3029
567.3561
571.8835
0.0 0.4 0.4
292.8206
318.1258
385.8094
388.9805
549.8523
576.8259
0.0 0.4 -0.5
278.0538
279.1537
411.0054
445.1659
514.2797
561.6515
0.0 -0.5 0.0
264.6262
326.4265
429.2637
455.6062
502.9146
542.492
0.0 -0.5 0.1
279.4575
318.1153
423.3063
442.611
526.1633
562.9751
0.0 -0.5 0.2
308.0407
314.2902
402.5431
404.0564
562.7105
588.8229
0.0 -0.5 0.3
331.2541
345.5344
355.669
367.0175
585.9273
589.5035
0.0 -0.5 0.4
309.7323
325.5016
388.6403
393.9285
570.7418
591.5609
0.0 -0.5 -0.5
287.787
314.213
419.2133
434.7809
536.7932
571.8591
0.1 0.1 0.0
97.8895
127.8295
237.1832
365.4854
393.8254
585.833
0.1 0.1 0.1
147.3127
155.907
281.3977
357.1232
383.0263
572.1125
0.1 0.1 0.2
208.9766
216.1495
328.1935
347.9061
376.5309
537.2505
0.1 0.1 0.3
264.4542
274.4797
282.6446
293.9581
464.1749
483.5719
0.1 0.1 0.4
224.4444
233.299
316.4998
334.2025
403.1166
524.5879
0.1 0.1 -0.5
166.9153
170.1767
305.4646
351.4436
375.8287
564.1864
0.1 0.2 0.0
155.9302
198.997
333.1975
401.3976
439.8138
559.0418
0.1 0.2 0.1
180.6239
219.6942
360.0147
398.2537
424.3026
555.1146
0.1 0.2 0.2
235.0423
262.4744
362.512
380.5101
434.6223
539.1572
0.1 0.2 0.3
293.7203
300.6841
326.6227
328.6784
491.4928
504.5997
0.1 0.2 0.4
251.702
274.9279
353.7106
364.9824
451.3113
531.623
0.1 0.2 -0.5
194.0874
230.5797
369.3519
400.2309
414.7437
552.231
0.1 0.3 0.0
219.8529
255.6434
392.7741
451.8773
487.6741
521.7469
0.1 0.3 0.1
226.2128
273.8442
402.7589
449.0012
467.9032
541.8512
0.1 0.3 0.2
252.6834
310.6876
387.8335
405.6539
497.1134
552.2359
0.1 0.3 0.3
302.6718
317.9802
360.5937
369.1405
531.2532
538.4353
0.1 0.3 0.4
264.3785
320.6023
374.866
394.9238
507.5274
550.6343
0.1 0.3 -0.5
231.1792
283.326
403.4036
438.8531
472.1395
547.126
0.1 0.4 0.0
279.8368
286.8965
423.4388
481.7406
485.5771
524.8595
0.1 0.4 0.1
272.6406
306.9332
422.7856
453.4264
507.1637
547.7834
0.1 0.4 0.2
275.3901
339.9914
388.3195
427.4447
538.6933
569.989
0.1 0.4 0.3
307.901
322.4709
384.3727
394.1647
563.1971
567.3929
0.1 0.4 0.4
280.6805
347.1213
375.9319
419.0474
546.817
571.6064
0.1 0.4 -0.5
271.6637
315.6338
417.3326
446.1183
515.3002
556.0993
0.2 0.2 0.0
197.8744
230.3514
382.8477
427.0334
475.0725
535.9429
0.2 0.2 0.1
210.6629
249.7569
392.4633
434.062
453.2976
545.6477
0.2 0.2 0.2
248.3595
289.8249
377.4915
399.0329
478.2848
547.7265
0.2 0.2 0.3
303.622
317.0621
342.8006
350.8104
518.9103
527.79
0.2 0.2 0.4
262.4195
301.4199
367.4078
383.8824
490.5398
544.3489
0.2 0.2 -0.5
218.8072
259.9416
392.0873
433.7668
450.1462
548.2161
0.2 0.3 0.0
246.3399
295.7156
400.4752
484.6308
495.3928
501.6357
0.2 0.3 0.1
245.9029
311.1442
416.7271
448.7456
493.0628
536.6797
0.2 0.3 0.2
258.4227
340.2944
394.8609
422.278
515.366
554.9553
0.2 0.3 0.3
299.2851
314.8166
390.142
398.1015
542.1063
547.505
0.2 0.3 0.4
266.6248
343.5587
383.6797
417.2343
523.4986
555.1669
0.2 0.3 -0.5
247.2241
319.2149
420.9008
435.4004
497.0888
544.4204
0.2 0.4 0.0
292.8242
344.9391
422.8917
462.2958
498.1532
526.8521
0.2 0.4 0.1
284.1365
357.5826
430.573
445.0557
523.1666
534.3494
0.2 0.4 0.2
277.2264
361.9416
405.9364
456.0378
539.0547
558.5408
0.2 0.4 0.3
298.9722
311.6912
429.2447
436.7665
556.7461
559.7409
0.2 0.4 0.4
279.3388
350.0576
410.2856
452.7765
544.6025
561.1614
0.2 0.4 -0.5
280.9028
363.2599
420.4321
451.291
526.9553
542.3957
0.3 0.3 0.0
285.8831
294.5
425.7814
476.4298
488.6888
527.354
0.3 0.3 0.1
277.1997
314.4647
424.3976
452.5766
510.1811
548.0102
0.3 0.3 0.2
277.05
346.1839
387.6637
432.2293
541.0029
570.4409
0.3 0.3 0.3
306.9404
321.1576
390.831
400.4672
564.6803
568.6508
0.3 0.3 0.4
281.495
350.9764
377.3097
424.4499
548.8938
572.2755
0.3 0.3 -0.5
275.49
323.0234
417.7351
447.3564
518.2132
556.2025
P	=	2500.03	V	=	94.9617	E	=	-655.20216041
0.0 0.0 0.0
-0.0
-0.0
0.0
362.5508
362.5508
650.8862
0.0 0.0 0.1
90.0643
90.0643
190.2432
352.9156
352.9156
630.0755
0.0 0.0 0.2
168.0847
168.0847
318.1936
318.1936
357.9724
579.6662
0.0 0.0 0.3
239.3429
239.3429
258.1967
258.1967
481.9055
507.5284
0.0 0.0 0.4
187.8768
187.8768
303.8054
303.8054
396.7821
562.4981
0.0 0.0 -0.5
112.6483
112.6483
239.43
346.2516
346.2516
618.4136
0.0 0.1 0.0
70.7263
95.0969
183.6421
374.0822
391.6331
639.6967
0.0 0.1 0.1
132.7734
136.5908
249.0417
364.9885
381.5495
621.7039
0.0 0.1 0.2
196.4222
207.62
332.5459
346.2706
377.7232
576.9647
0.0 0.1 0.3
260.1696
271.3015
277.3226
288.6537
487.2939
510.7496
0.0 0.1 0.4
213.8984
225.1629
319.2125
332.0879
411.2135
561.33
0.0 0.1 -0.5
149.8154
157.7002
282.8639
358.7278
374.6565
611.5139
0.0 0.2 0.0
144.6293
176.9078
339.8287
400.53
455.8284
609.2653
0.0 0.2 0.1
181.4073
202.0114
373.9038
392.6247
442.1474
601.2065
0.0 0.2 0.2
249.1459
251.7676
364.8734
398.6888
445.88
576.4137
0.0 0.2 0.3
304.343
316.75
318.5762
335.2377
515.4069
531.4781
0.0 0.2 0.4
266.1085
267.7483
353.6068
382.6265
466.1172
566.2741
0.0 0.2 -0.5
199.2467
214.6982
387.2232
391.7548
433.354
596.1831
0.0 0.3 0.0
220.0059
235.6623
427.2122
450.1513
519.1864
567.5367
0.0 0.3 0.1
235.1655
256.0073
420.401
471.7472
493.1176
584.619
0.0 0.3 0.2
274.4435
298.5497
396.5163
428.6749
525.3085
591.9995
0.0 0.3 0.3
335.3708
344.3338
355.288
356.6464
564.9897
573.4599
0.0 0.3 0.4
288.908
311.0567
386.8253
409.454
537.3771
589.2511
0.0 0.3 -0.5
243.8457
266.6387
415.7491
470.1824
493.4366
589.1774
0.0 0.4 0.0
268.6322
290.0059
445.6685
512.5641
523.691
562.5963
0.0 0.4 0.1
286.2171
292.2521
439.4423
488.3529
539.3878
592.2208
0.0 0.4 0.2
302.9814
324.7436
417.2674
433.2001
578.5414
616.0901
0.0 0.4 0.3
344.3779
362.2277
367.954
379.6509
606.4104
611.3428
0.0 0.4 0.4
310.2618
336.4386
408.1776
414.4047
587.6891
617.3394
0.0 0.4 -0.5
293.738
295.6331
435.1569
475.45
550.1308
601.4669
0.0 -0.5 0.0
281.5149
343.8474
454.9422
486.6036
539.6643
582.9739
0.0 -0.5 0.1
297.483
336.5421
448.8447
472.5208
564.0973
604.9035
0.0 -0.5 0.2
327.3649
334.0006
426.7926
430.6328
602.8073
632.0093
0.0 -0.5 0.3
352.284
367.4159
377.0351
388.8588
627.8013
631.7742
0.0 -0.5 0.4
329.2327
345.4829
414.1165
417.6653
611.2776
634.6565
0.0 -0.5 -0.5
306.2113
333.0266
444.6157
464.1196
575.2014
614.2305
0.1 0.1 0.0
100.8553
133.4814
251.4978
385.2374
415.5296
629.0367
0.1 0.1 0.1
154.189
163.8711
299.029
376.6769
404.5931
614.0669
0.1 0.1 0.2
219.8794
227.6476
345.9686
367.497
400.5264
575.5216
0.1 0.1 0.3
278.0565
288.7917
297.4687
309.6055
495.0774
516.0753
0.1 0.1 0.4
235.8552
245.4735
333.5995
352.9655
428.6975
561.6132
0.1 0.1 -0.5
175.0859
178.8627
324.3568
370.8387
397.2243
605.4663
0.1 0.2 0.0
161.5638
208.3584
353.0355
424.5023
465.1215
599.7959
0.1 0.2 0.1
189.1209
230.9535
381.2286
422.4431
449.3859
595.3851
0.1 0.2 0.2
247.6451
276.2097
382.2701
403.1395
463.0105
577.0607
0.1 0.2 0.3
309.3768
316.1629
344.6789
346.4417
523.9098
538.1269
0.1 0.2 0.4
265.0213
289.0277
372.9586
386.6083
480.5205
568.5525
0.1 0.2 -0.5
203.6637
242.4919
390.2012
425.5948
439.6218
592.1365
0.1 0.3 0.0
229.2929
268.6577
415.2299
480.9165
518.2883
559.0031
0.1 0.3 0.1
237.4921
288.5724
425.5917
477.9968
499.3718
579.9901
0.1 0.3 0.2
266.5818
327.5299
410.8233
430.3558
530.6812
590.525
0.1 0.3 0.3
319.564
335.5399
380.958
389.6192
566.7239
574.4759
0.1 0.3 0.4
278.7984
337.6603
397.7687
418.0376
541.4631
588.4734
0.1 0.3 -0.5
243.1852
298.6476
426.2937
467.3029
504.175
585.5451
0.1 0.4 0.0
293.5554
303.0584
448.1556
515.1459
518.9039
561.11
0.1 0.4 0.1
287.3281
324.74
447.9674
483.8398
542.7811
586.4285
0.1 0.4 0.2
291.215
359.6192
413.1315
453.6442
576.251
610.2138
0.1 0.4 0.3
325.8099
341.2218
407.0385
417.2179
602.0726
606.6079
0.1 0.4 0.4
296.748
366.7809
400.073
444.3725
584.6676
611.7128
0.1 0.4 -0.5
286.7212
334.0174
442.8974
475.4231
551.4346
595.3939
0.2 0.2 0.0
205.9432
241.759
404.9519
453.5375
503.999
574.5452
0.2 0.2 0.1
221.0049
262.9503
414.5316
462.074
482.3292
584.5107
0.2 0.2 0.2
261.9872
305.3915
398.6817
423.68
510.0929
585.7727
0.2 0.2 0.3
320.4185
334.1649
362.0392
370.1078
553.2399
562.8604
0.2 0.2 0.4
276.6735
317.3204
388.3308
407.0913
522.8463
581.7565
0.2 0.2 -0.5
230.0335
273.7651
414.0639
461.1824
480.1221
587.0824
0.2 0.3 0.0
257.5104
311.2087
423.6429
516.3644
527.7613
536.9502
0.2 0.3 0.1
258.3816
328.1759
440.9011
478.5315
526.9006
574.0463
0.2 0.3 0.2
272.5957
358.8227
420.6756
446.6429
550.929
593.5181
0.2 0.3 0.3
316.013
332.4513
412.4224
420.5344
578.8908
584.6625
0.2 0.3 0.4
281.1435
362.2275
408.2922
441.1517
559.2885
593.4965
0.2 0.3 -0.5
260.2209
336.7474
445.3933
464.3587
531.4292
582.3772
0.2 0.4 0.0
307.4299
364.3265
448.4967
493.7223
531.8507
563.0833
0.2 0.4 0.1
299.3506
378.1659
459.1563
472.8464
559.7082
571.7499
0.2 0.4 0.2
292.7613
383.1781
432.2382
483.5552
577.1924
597.8162
0.2 0.4 0.3
315.8443
329.4389
454.7719
462.5681
595.4997
598.6519
0.2 0.4 0.4
294.8884
370.9528
435.8285
479.9533
582.8735
600.4679
0.2 0.4 -0.5
296.3445
384.1408
448.9738
478.9147
564.0758
580.4111
0.3 0.3 0.0
300.0497
311.2159
450.7708
509.3123
522.3492
564.0391
0.3 0.3 0.1
292.2063
332.8283
450.0322
482.7176
546.0781
586.8058
0.3 0.3 0.2
292.984
366.2086
412.685
458.6997
578.8583
610.8121
0.3 0.3 0.3
324.781
339.8401
414.0074
424.0338
603.8121
608.1038
0.3 0.3 0.4
297.6226
371.0063
401.5963
450.1574
587.0378
612.5495
0.3 0.3 -0.5
290.8215
341.9487
443.8128
476.3814
554.6486
595.6224
P	=	2999.83	V	=	91.3477	E	=	-655.13475698
0.0 0.0 0.0
0.0
0.0
0.0
379.1032
379.1032
691.9488
0.0 0.0 0.1
95.8482
95.8482
202.313
369.2963
369.2963
669.6213
0.0 0.0 0.2
176.9555
176.9555
332.9691
332.9691
379.7048
615.1895
0.0 0.0 0.3
250.422
250.422
269.85
269.85
510.6686
537.6212
0.0 0.0 0.4
197.0553
197.0553
317.9845
317.9845
420.1994
596.8641
0.0 0.0 -0.5
119.2816
119.2816
253.8418
362.4924
362.4924
657.2211
0.0 0.1 0.0
75.6989
98.927
193.2579
391.1176
409.6652
679.9868
0.0 0.1 0.1
139.5789
145.3094
263.6001
381.8734
399.5219
660.7229
0.0 0.1 0.2
206.0809
218.6366
347.8809
362.6502
400.2436
612.3337
0.0 0.1 0.3
271.9322
283.9456
289.6427
301.8346
516.1827
540.9096
0.0 0.1 0.4
223.8688
236.3138
333.9602
347.8294
435.2258
595.5895
0.0 0.1 -0.5
157.3981
167.0724
299.2554
375.479
392.5235
649.8894
0.0 0.2 0.0
153.9978
184.3302
358.0647
418.8811
477.7781
647.414
0.0 0.2 0.1
193.1848
211.3617
394.7805
410.866
464.1534
638.7225
0.0 0.2 0.2
263.1725
263.4304
381.6846
418.7128
471.3786
611.3762
0.0 0.2 0.3
317.8563
332.4453
332.6049
351.5468
545.0873
562.1724
0.0 0.2 0.4
278.053
281.8864
369.8553
401.9066
492.491
600.3115
0.0 0.2 -0.5
211.6435
224.6432
405.343
413.5776
455.3284
633.2988
0.0 0.3 0.0
233.0026
246.2786
447.3182
475.1853
546.4684
602.6472
0.0 0.3 0.1
249.5277
268.1151
440.4247
497.8364
520.9237
620.009
0.0 0.3 0.2
290.3103
312.5891
415.2258
452.1206
555.3449
627.0284
0.0 0.3 0.3
353.2532
360.012
372.7973
373.9919
597.0552
606.0971
0.0 0.3 0.4
304.9185
325.3422
405.0047
431.8878
567.7971
623.7949
0.0 0.3 -0.5
258.6183
279.2247
435.6616
495.8891
521.9187
624.6553
0.0 0.4 0.0
281.9177
305.9491
467.4233
542.3885
555.5226
595.1782
0.0 0.4 0.1
300.7389
309.0182
461.1277
516.8821
571.2932
627.6509
0.0 0.4 0.2
320.5609
340.9275
437.7395
457.8916
612.3643
652.8475
0.0 0.4 0.3
363.5556
382.1748
385.6274
397.7558
641.6289
646.9205
0.0 0.4 0.4
327.9273
352.8356
428.1603
438.0108
621.8006
653.9301
0.0 0.4 -0.5
310.5537
310.7864
456.7413
503.269
582.4775
637.4712
0.0 -0.5 0.0
296.6222
361.95
477.7643
515.7916
572.4386
619.0797
0.0 -0.5 0.1
313.6643
355.2872
471.6078
500.2692
598.0567
642.5495
0.0 -0.5 0.2
346.5111
351.6482
448.4275
455.1358
638.736
670.8018
0.0 -0.5 0.3
372.3721
388.0559
396.0585
408.2764
665.3186
669.6468
0.0 -0.5 0.4
348.3897
363.3124
437.7192
438.8504
647.5723
673.3402
0.0 -0.5 -0.5
322.7348
352.0131
467.2899
491.2587
609.5802
652.2898
0.1 0.1 0.0
107.7373
138.9583
264.7415
402.8398
434.8875
668.5837
0.1 0.1 0.1
164.1765
171.8017
315.9288
394.1751
423.9466
652.5718
0.1 0.1 0.2
230.3628
239.9485
361.9029
385.2051
423.9692
610.7409
0.1 0.1 0.3
290.4661
301.9919
311.0913
324.0186
524.1568
546.3534
0.1 0.1 0.4
246.6204
257.8641
348.9688
370.0021
453.4174
595.7762
0.1 0.1 -0.5
185.2504
187.9719
342.6498
388.2448
416.4906
643.4148
0.1 0.2 0.0
171.8171
217.2777
371.0103
445.368
487.6879
637.2688
0.1 0.2 0.1
201.2145
241.6573
400.4664
444.6527
471.9285
632.4105
0.1 0.2 0.2
261.4865
288.9784
400.0972
423.7276
489.535
611.8981
0.1 0.2 0.3
324.1161
330.2995
361.2391
362.9099
553.9604
569.0808
0.1 0.2 0.4
278.9137
302.0015
390.3573
406.4127
507.7512
602.543
0.1 0.2 -0.5
216.2309
253.747
409.0518
449.0339
462.0942
628.8354
0.1 0.3 0.0
242.6869
280.7651
435.237
507.188
545.7277
593.4898
0.1 0.3 0.1
251.6654
302.3123
446.0974
504.2006
528.0751
614.9414
0.1 0.3 0.2
281.578
342.9906
431.441
453.1241
561.3349
625.418
0.1 0.3 0.3
335.8015
351.9626
399.6109
408.2709
599.0488
607.2862
0.1 0.3 0.4
293.812
353.2255
418.5321
439.3218
572.4153
622.9497
0.1 0.3 -0.5
257.594
312.8751
446.883
493.1565
533.3959
620.6655
0.1 0.4 0.0
309.625
317.7573
470.1798
546.3368
548.747
593.6232
0.1 0.4 0.1
303.2827
341.3851
470.5151
511.7894
574.9214
621.3711
0.1 0.4 0.2
307.5147
377.5787
435.6455
477.5337
610.1302
646.5231
0.1 0.4 0.3
343.046
358.9077
427.6081
438.087
637.1054
641.9355
0.1 0.4 0.4
313.0134
384.7356
422.1271
467.4172
618.7815
647.8922
0.1 0.4 -0.5
302.8477
351.0617
465.8
502.4029
584.0117
630.9025
0.2 0.2 0.0
218.3106
252.4475
424.6814
477.6067
529.8912
610.1792
0.2 0.2 0.1
234.5351
275.349
434.3274
487.4996
508.7517
620.2085
0.2 0.2 0.2
276.7586
319.7605
417.7114
446.281
539.3166
620.5729
0.2 0.2 0.3
336.4178
349.9607
379.7563
387.8125
584.6909
594.9393
0.2 0.2 0.4
291.499
331.8857
407.1407
428.5536
552.4841
615.9809
0.2 0.2 -0.5
243.8966
286.6915
433.8105
486.0394
507.5877
622.7249
0.2 0.3 0.0
272.0826
325.5248
444.2491
544.8136
556.9252
569.7914
0.2 0.3 0.1
273.3668
343.8887
462.667
505.5941
557.6002
608.1311
0.2 0.3 0.2
287.82
375.7526
444.268
468.7502
583.2151
628.4836
0.2 0.3 0.3
332.2563
349.1537
432.7074
440.8789
612.2246
618.3073
0.2 0.3 0.4
296.2969
379.2644
430.93
462.8389
591.7517
628.2309
0.2 0.3 -0.5
275.3233
352.8669
467.4598
490.7981
562.5774
616.9054
0.2 0.4 0.0
324.0716
381.9711
471.2842
523.2745
561.9357
595.6585
0.2 0.4 0.1
315.9896
396.9422
485.1031
498.2709
592.6445
605.4956
0.2 0.4 0.2
308.9585
402.647
456.2129
508.4528
611.547
633.1675
0.2 0.4 0.3
332.3373
346.4253
477.8631
485.8732
630.3557
633.6275
0.2 0.4 0.4
310.869
390.2647
459.0616
504.5367
617.331
635.8155
0.2 0.4 -0.5
312.9909
403.1898
475.1014
503.9371
597.493
614.6978
0.3 0.3 0.0
316.3837
326.3937
473.0407
540.0644
552.4679
596.9352
0.3 0.3 0.1
308.3675
349.9329
472.9941
510.4694
578.4318
621.8444
0.3 0.3 0.2
309.3532
384.5263
435.4372
482.7814
612.9729
647.2209
0.3 0.3 0.3
341.9694
357.4895
435.0227
445.3541
639.0436
643.6137
0.3 0.3 0.4
313.9306
389.3284
423.7835
473.5096
621.3846
648.8463
0.3 0.3 -0.5
307.1257
359.4509
467.2205
503.1
587.46
631.2096
P	=	5000.31	V	=	81.0349	E	=	-654.86008823
0.0 0.0 0.0
-0.0
0.0
0.0
433.894
433.894
824.2949
0.0 0.0 0.1
111.9506
111.9506
233.8852
422.5262
422.5262
796.8126
0.0 0.0 0.2
204.8574
204.8574
380.6347
380.6347
443.2498
729.6077
0.0 0.0 0.3
287.5711
287.5711
308.6797
308.6797
601.7356
633.6101
0.0 0.0 0.4
226.683
226.683
364.1435
364.1435
490.1085
707.8111
0.0 0.0 -0.5
138.0464
138.0464
291.9131
414.9962
414.9962
782.1539
0.0 0.1 0.0
89.8527
112.3998
226.7828
447.6159
469.8448
810.2713
0.0 0.1 0.1
160.2622
167.927
308.6042
436.9554
458.5343
786.5412
0.0 0.1 0.2
236.6266
252.3698
397.6142
416.1303
468.8794
726.6396
0.0 0.1 0.3
311.2433
326.287
330.6579
345.9425
608.8387
638.0802
0.0 0.1 0.4
256.0217
271.6277
382.1789
399.6559
509.1683
706.6696
0.0 0.1 -0.5
180.1433
192.2267
348.3599
429.8802
450.9315
773.7137
0.0 0.2 0.0
180.5218
210.1117
421.0896
479.8483
551.6935
771.6405
0.0 0.2 0.1
224.765
241.3842
463.948
470.688
537.1532
760.4108
0.0 0.2 0.2
300.6922
304.9068
436.6061
484.3503
554.2214
725.3754
0.0 0.2 0.3
362.7815
379.2002
384.2738
405.6359
642.9691
663.3267
0.0 0.2 0.4
316.6441
325.4568
423.274
465.4831
578.2921
711.875
0.0 0.2 -0.5
245.0663
256.0122
464.5685
484.7291
527.9706
753.7249
0.0 0.3 0.0
269.7136
282.6475
513.7988
560.3839
638.3287
717.3279
0.0 0.3 0.1
289.7091
307.6926
505.9766
583.6972
613.3188
735.6713
0.0 0.3 0.2
337.9551
357.9637
476.3647
527.8988
654.5901
742.0473
0.0 0.3 0.3
411.5324
411.9801
426.2866
435.0618
703.9541
714.7411
0.0 0.3 0.4
354.3042
371.8051
464.7297
504.772
668.486
737.7694
0.0 0.3 -0.5
300.1639
319.8235
500.6944
579.6672
616.2448
740.5244
0.0 0.4 0.0
326.9492
351.3974
538.5275
642.1672
658.5177
704.0917
0.0 0.4 0.1
348.5382
357.0628
531.4952
608.5734
676.6582
743.9219
0.0 0.4 0.2
373.3833
393.7421
504.2732
536.2931
723.4325
773.2937
0.0 0.4 0.3
424.7132
444.1233
445.8706
457.5414
758.1849
764.5806
0.0 0.4 0.4
382.0042
406.5468
493.4661
513.2662
734.0104
774.1861
0.0 0.4 -0.5
359.2285
359.9147
526.6873
592.3682
688.8125
755.2258
0.0 -0.5 0.0
347.501
414.7142
551.5015
608.1378
680.8158
738.7165
0.0 -0.5 0.1
367.0531
410.105
544.7923
587.4941
708.8328
765.9846
0.0 -0.5 0.2
403.7575
409.5477
518.3393
531.4836
755.3703
797.5799
0.0 -0.5 0.3
434.8495
452.3817
458.9591
472.2515
788.283
793.842
0.0 -0.5 0.4
406.3011
421.9596
507.7334
511.4655
765.6064
799.9521
0.0 -0.5 -0.5
376.907
407.6664
540.1607
576.4121
721.2291
776.6967
0.1 0.1 0.0
127.2965
158.2115
310.7149
461.3764
499.7538
796.8272
0.1 0.1 0.1
190.1032
196.7286
370.5125
451.5296
487.8162
777.0095
0.1 0.1 0.2
263.6431
276.9433
413.7642
443.2839
497.6705
724.9236
0.1 0.1 0.3
331.8691
345.615
356.7982
372.1689
618.4881
644.7803
0.1 0.1 0.4
281.3652
296.5082
399.3769
426.2908
531.4634
706.9859
0.1 0.1 -0.5
212.2773
215.7177
400.2237
445.1398
479.8067
766.1096
0.1 0.2 0.0
200.9976
248.5907
431.9283
516.2228
563.3571
759.5415
0.1 0.2 0.1
233.9536
276.7807
462.66
519.5663
546.3631
752.7175
0.1 0.2 0.2
302.5498
330.3245
458.3318
491.0369
576.2893
725.7258
0.1 0.2 0.3
372.4541
377.3167
415.5272
418.5847
653.4797
671.4793
0.1 0.2 0.4
321.5786
344.3851
447.5746
471.5302
596.9244
714.2055
0.1 0.2 -0.5
250.3415
290.0485
469.8693
526.753
536.1089
748.0992
0.1 0.3 0.0
281.0996
322.7072
502.345
595.6885
637.9447
706.4125
0.1 0.3 0.1
291.7449
347.772
513.3775
589.8057
623.7239
729.2732
0.1 0.3 0.2
326.6962
393.5501
497.6824
527.652
662.6219
739.9287
0.1 0.3 0.3
388.7021
405.6097
461.7252
470.5069
706.7408
716.4427
0.1 0.3 0.4
340.2223
404.4446
485.0763
510.0027
674.8622
736.6211
0.1 0.3 -0.5
298.4624
359.3662
514.0704
577.1335
630.2637
735.3847
0.1 0.4 0.0
356.5209
368.0874
543.2372
647.8293
648.0283
702.288
0.1 0.4 0.1
350.402
395.6629
543.6459
602.0758
680.9135
736.0915
0.1 0.4 0.2
356.9751
436.3048
507.0477
555.2327
721.3858
765.3969
0.1 0.4 0.3
398.4736
415.8473
495.8223
507.2122
753.0208
758.7375
0.1 0.4 0.4
363.2825
443.6424
492.5656
542.8542
731.0055
766.6975
0.1 0.4 -0.5
350.3842
406.3838
539.2569
589.7069
691.0515
747.0118
0.2 0.2 0.0
253.4996
289.4842
490.5983
559.4151
616.9811
726.7276
0.2 0.2 0.1
272.2518
316.0911
499.2091
571.1756
596.8653
736.7147
0.2 0.2 0.2
320.9869
366.4251
479.6934
519.7677
635.7854
734.7515
0.2 0.2 0.3
388.5363
401.8191
438.4403
447.0387
689.4936
701.677
0.2 0.2 0.4
337.1934
379.5406
468.3801
499.0968
650.4847
728.8474
0.2 0.2 -0.5
282.67
328.5677
498.3048
567.1755
598.6284
739.009
0.2 0.3 0.0
314.7293
375.1381
513.8579
639.0321
655.4029
677.5724
0.2 0.3 0.1
316.6004
396.4
534.1617
593.2732
659.8383
719.7075
0.2 0.3 0.2
333.9354
431.6002
519.7073
541.207
689.85
743.0055
0.2 0.3 0.3
385.2349
403.6452
500.5537
508.8451
723.0272
729.9908
0.2 0.3 0.4
343.3654
435.3845
504.2743
534.242
699.1297
742.4696
0.2 0.3 -0.5
318.956
406.1749
539.3205
576.2269
665.7833
729.5978
0.2 0.4 0.0
374.7678
442.6017
548.2688
620.3848
661.1993
704.6069
0.2 0.4 0.1
365.7666
459.6662
567.3935
582.7225
701.0435
716.3571
0.2 0.4 0.2
358.5062
465.4354
533.9625
589.6666
724.5338
748.3898
0.2 0.4 0.3
386.0196
401.6516
555.0766
563.6508
745.5495
749.0715
0.2 0.4 0.4
360.7572
452.3116
535.544
585.2647
730.8011
751.4137
0.2 0.4 -0.5
362.6373
466.2844
558.3991
585.6115
707.4656
726.4579
0.3 0.3 0.0
364.365
378.3788
546.9653
640.1086
652.517
706.7857
0.3 0.3 0.1
356.3054
405.8285
547.2171
600.2377
684.9528
736.9202
0.3 0.3 0.2
359.0848
444.4653
507.5551
561.0663
724.8768
766.3732
0.3 0.3 0.3
397.2301
414.2831
504.7461
515.9851
755.5048
760.9187
0.3 0.3 0.4
364.3647
449.2615
494.8461
549.9025
734.2536
767.9704
0.3 0.3 -0.5
355.3774
416.367
541.9502
589.765
695.1136
747.5916

weight
   0.0000000   0.0000000   0.0000000   0.0020000   
   0.0000000   0.0000000   0.1000000   0.0040000   
   0.0000000   0.0000000   0.2000000   0.0040000   
   0.0000000   0.0000000   0.3000000   0.0040000   
   0.0000000   0.0000000   0.4000000   0.0040000   
   0.0000000   0.0000000  -0.5000000   0.0020000   
   0.0000000   0.1000000   0.0000000   0.0120000   
   0.0000000   0.1000000   0.1000000   0.0240000   
   0.0000000   0.1000000   0.2000000   0.0240000   
   0.0000000   0.1000000   0.3000000   0.0240000   
   0.0000000   0.1000000   0.4000000   0.0240000   
   0.0000000   0.1000000  -0.5000000   0.0120000   
   0.0000000   0.2000000   0.0000000   0.0120000   
   0.0000000   0.2000000   0.1000000   0.0240000   
   0.0000000   0.2000000   0.2000000   0.0240000   
   0.0000000   0.2000000   0.3000000   0.0240000   
   0.0000000   0.2000000   0.4000000   0.0240000   
   0.0000000   0.2000000  -0.5000000   0.0120000   
   0.0000000   0.3000000   0.0000000   0.0120000   
   0.0000000   0.3000000   0.1000000   0.0240000   
   0.0000000   0.3000000   0.2000000   0.0240000   
   0.0000000   0.3000000   0.3000000   0.0240000   
   0.0000000   0.3000000   0.4000000   0.0240000   
   0.0000000   0.3000000  -0.5000000   0.0120000   
   0.0000000   0.4000000   0.0000000   0.0120000   
   0.0000000   0.4000000   0.1000000   0.0240000   
   0.0000000   0.4000000   0.2000000   0.0240000   
   0.0000000   0.4000000   0.3000000   0.0240000   
   0.0000000   0.4000000   0.4000000   0.0240000   
   0.0000000   0.4000000  -0.5000000   0.0120000   
   0.0000000  -0.5000000   0.0000000   0.0060000   
   0.0000000  -0.5000000   0.1000000   0.0120000   
   0.0000000  -0.5000000   0.2000000   0.0120000   
   0.0000000  -0.5000000   0.3000000   0.0120000   
   0.0000000  -0.5000000   0.4000000   0.0120000   
   0.0000000  -0.5000000  -0.5000000   0.0060000   
   0.1000000   0.1000000   0.0000000   0.0120000   
   0.1000000   0.1000000   0.1000000   0.0240000   
   0.1000000   0.1000000   0.2000000   0.0240000   
   0.1000000   0.1000000   0.3000000   0.0240000   
   0.1000000   0.1000000   0.4000000   0.0240000   
   0.1000000   0.1000000  -0.5000000   0.0120000   
   0.1000000   0.2000000   0.0000000   0.0240000   
   0.1000000   0.2000000   0.1000000   0.0480000   
   0.1000000   0.2000000   0.2000000   0.0480000   
   0.1000000   0.2000000   0.3000000   0.0480000   
   0.1000000   0.2000000   0.4000000   0.0480000   
   0.1000000   0.2000000  -0.5000000   0.0240000   
   0.1000000   0.3000000   0.0000000   0.0240000   
   0.1000000   0.3000000   0.1000000   0.0480000   
   0.1000000   0.3000000   0.2000000   0.0480000   
   0.1000000   0.3000000   0.3000000   0.0480000   
   0.1000000   0.3000000   0.4000000   0.0480000   
   0.1000000   0.3000000  -0.5000000   0.0240000   
   0.1000000   0.4000000   0.0000000   0.0240000   
   0.1000000   0.4000000   0.1000000   0.0480000   
   0.1000000   0.4000000   0.2000000   0.0480000   
   0.1000000   0.4000000   0.3000000   0.0480000   
   0.1000000   0.4000000   0.4000000   0.0480000   
   0.1000000   0.4000000  -0.5000000   0.0240000   
   0.2000000   0.2000000   0.0000000   0.0120000   
   0.2000000   0.2000000   0.1000000   0.0240000   
   0.2000000   0.2000000   0.2000000   0.0240000   
   0.2000000   0.2000000   0.3000000   0.0240000   
   0.2000000   0.2000000   0.4000000   0.0240000   
   0.2000000   0.2000000  -0.5000000   0.0120000   
   0.2000000   0.3000000   0.0000000   0.0240000   
   0.2000000   0.3000000   0.1000000   0.0480000   
   0.2000000   0.3000000   0.2000000   0.0480000   
   0.2000000   0.3000000   0.3000000   0.0480000   
   0.2000000   0.3000000   0.4000000   0.0480000   
   0.2000000   0.3000000  -0.5000000   0.0240000   
   0.2000000   0.4000000   0.0000000   0.0120000   
   0.2000000   0.4000000   0.1000000   0.0240000   
   0.2000000   0.4000000   0.2000000   0.0240000   
   0.2000000   0.4000000   0.3000000   0.0240000   
   0.2000000   0.4000000   0.4000000   0.0240000   
   0.2000000   0.4000000  -0.5000000   0.0120000   
   0.3000000   0.3000000   0.0000000   0.0120000   
   0.3000000   0.3000000   0.1000000   0.0240000   
   0.3000000   0.3000000   0.2000000   0.0240000   
   0.3000000   0.3000000   0.3000000   0.0240000   
   0.3000000   0.3000000   0.4000000   0.0240000   
   0.3000000   0.3000000  -0.5000000   0.0120000   