Number of volumes (nv), q-vectors (nq), normal mode (np), formula units(nm)
10 84 6 1

P	=	0.43	V	=	140.6201	E	=	-655.48121021
0.0 0.0 0.0
-0.0
-0.0
0.0
203.2775
203.2775
289.865
0.0 0.0 0.1
48.6948
48.6948
100.0049
197.2155
197.2155
288.0246
0.0 0.0 0.2
92.2815
92.2815
177.0534
177.0534
183.8794
278.8468
0.0 0.0 0.3
132.52
132.52
143.6092
143.6092
241.8686
253.5005
0.0 0.0 0.4
104.0942
104.0942
168.5227
168.5227
203.4454
273.6375
0.0 0.0 -0.5
61.8052
61.8052
126.4296
192.9624
192.9624
286.4611
0.0 0.1 0.0
49.1131
56.0515
98.767
209.2314
218.5877
287.0241
0.0 0.1 0.1
75.152
80.4554
131.4262
203.8441
212.4948
285.7363
0.0 0.1 0.2
109.9252
117.3678
185.7795
192.8817
195.6181
278.2735
0.0 0.1 0.3
145.697
152.6978
155.6748
162.6214
245.7912
256.0945
0.0 0.1 0.4
120.2895
127.6124
178.1069
185.2485
212.0906
273.7991
0.0 0.1 -0.5
84.7111
91.5132
149.48
200.047
208.3287
284.5433
0.0 0.2 0.0
95.6347
102.8334
179.6437
222.0838
249.4786
279.058
0.0 0.2 0.1
111.5059
115.5336
196.3398
218.0624
241.0746
281.1502
0.0 0.2 0.2
142.7301
144.3915
204.205
219.4974
231.5985
280.6724
0.0 0.2 0.3
172.2268
179.4988
180.328
189.2279
262.4533
268.7496
0.0 0.2 0.4
151.2859
154.5902
198.2028
211.4999
241.6472
278.7056
0.0 0.2 -0.5
120.1782
122.6219
205.7342
215.1894
236.0115
281.7305
0.0 0.3 0.0
133.7287
136.6386
231.4967
233.1896
267.6364
272.9776
0.0 0.3 0.1
140.6024
144.2885
230.1617
243.7439
252.1039
283.9181
0.0 0.3 0.2
157.9263
168.0417
219.5766
227.1558
267.8298
291.0465
0.0 0.3 0.3
187.178
193.6943
196.465
200.4663
285.5084
288.457
0.0 0.3 0.4
165.5215
175.5932
214.887
218.7907
273.9838
291.4495
0.0 0.3 -0.5
144.0003
150.3731
227.9901
245.035
251.1337
286.7399
0.0 0.4 0.0
147.36
169.1927
238.7279
254.8845
255.2695
279.5402
0.0 0.4 0.1
156.9927
164.4816
235.8479
244.3074
266.9512
287.6271
0.0 0.4 0.2
166.0357
179.2731
222.1079
226.3844
285.9839
297.1593
0.0 0.4 0.3
185.6717
193.6662
203.261
209.4236
297.3561
298.7135
0.0 0.4 0.4
169.9466
186.4037
214.241
222.2611
290.3108
298.5637
0.0 0.4 -0.5
162.6405
163.316
233.8587
238.8301
272.649
290.9038
0.0 -0.5 0.0
149.2977
190.5137
240.2301
245.0118
261.2644
274.3552
0.0 -0.5 0.1
158.6224
178.9947
236.426
236.9787
273.8711
283.354
0.0 -0.5 0.2
169.5236
180.5824
216.5703
227.1452
290.7318
295.1756
0.0 -0.5 0.3
182.5807
189.7572
204.3467
210.4109
298.4643
298.9746
0.0 -0.5 0.4
170.8746
187.6609
209.1622
223.0392
293.979
297.1817
0.0 -0.5 -0.5
164.148
174.5856
231.7212
234.8305
279.3396
287.287
0.1 0.1 0.0
68.862
78.3453
134.5123
214.7677
230.6052
284.2734
0.1 0.1 0.1
92.8918
94.1444
157.9516
209.9489
224.1329
283.7556
0.1 0.1 0.2
124.1623
130.3864
193.6551
204.4594
208.0422
278.3545
0.1 0.1 0.3
156.8096
163.7329
167.6716
175.0748
250.7514
259.6392
0.1 0.1 0.4
133.6268
140.5748
186.7065
196.8866
221.8934
274.7014
0.1 0.1 -0.5
101.5702
104.4194
171.3523
206.5373
219.829
283.0381
0.1 0.2 0.0
106.0072
121.1256
188.4294
231.0766
253.028
276.537
0.1 0.2 0.1
117.0884
132.3864
204.6777
227.755
243.1368
280.178
0.1 0.2 0.2
144.8552
157.1591
214.1876
220.4171
239.0562
281.6995
0.1 0.2 0.3
176.8537
180.7791
193.003
194.8223
266.6377
272.1212
0.1 0.2 0.4
154.2461
164.9331
208.9866
212.4253
248.0861
280.3428
0.1 0.2 -0.5
123.8941
138.7872
213.1407
225.7627
237.5844
281.3433
0.1 0.3 0.0
142.8632
153.13
224.7793
248.4288
265.3798
271.088
0.1 0.3 0.1
142.9411
163.3057
233.8706
246.288
252.764
282.3863
0.1 0.3 0.2
155.1421
185.0377
220.7727
233.795
268.3088
289.986
0.1 0.3 0.3
180.8802
189.1251
210.9808
216.7198
285.1915
287.9671
0.1 0.3 0.4
161.5703
191.5598
213.2295
229.5742
274.1532
290.5447
0.1 0.3 -0.5
144.7375
168.929
234.2993
242.7477
254.3286
285.3382
0.1 0.4 0.0
167.6667
173.2215
240.9782
253.1842
258.2523
278.1436
0.1 0.4 0.1
163.7142
179.2942
236.8934
247.8277
266.8005
285.4441
0.1 0.4 0.2
162.792
198.7849
214.4065
241.7576
283.7586
294.713
0.1 0.4 0.3
179.4674
186.7153
221.0893
226.6663
294.9819
296.3306
0.1 0.4 0.4
165.8446
203.722
208.1938
238.188
287.9849
296.1282
0.1 0.4 -0.5
161.9585
184.1425
231.2779
247.2091
271.4287
288.5785
0.2 0.2 0.0
130.2559
138.5682
217.7361
239.2572
267.5937
269.6407
0.2 0.2 0.1
134.2636
149.484
227.9242
239.3045
250.7609
281.508
0.2 0.2 0.2
152.7175
172.9079
220.002
228.1244
260.6119
287.7861
0.2 0.2 0.3
181.7091
189.4727
201.3294
206.8869
280.3108
283.7965
0.2 0.2 0.4
160.4904
180.2219
213.4036
222.0199
267.3121
287.8542
0.2 0.2 -0.5
137.9644
155.5364
228.8699
241.9472
245.8481
284.1347
0.2 0.3 0.0
158.3255
176.3108
228.9292
259.402
262.3579
270.7499
0.2 0.3 0.1
154.005
184.6964
240.4982
243.3259
262.9302
281.4141
0.2 0.3 0.2
158.1636
202.8335
218.0229
245.5667
274.0003
290.3189
0.2 0.3 0.3
178.5486
186.2859
226.7728
232.0343
288.0367
290.1554
0.2 0.3 0.4
162.6182
204.025
214.8157
242.6735
278.8865
291.3483
0.2 0.3 -0.5
153.4845
189.5433
235.7184
245.448
264.0694
284.6892
0.2 0.4 0.0
183.3166
201.481
238.4835
247.8204
266.9751
277.4566
0.2 0.4 0.1
172.7027
208.7754
232.5735
251.7038
274.2536
279.6635
0.2 0.4 0.2
165.402
206.4935
226.5852
259.7395
280.5738
289.3351
0.2 0.4 0.3
175.9076
181.7531
244.4916
249.003
290.4368
291.6234
0.2 0.4 0.4
166.5943
199.0629
231.8703
257.6967
284.0764
290.9586
0.2 0.4 -0.5
169.0816
212.7478
226.0166
256.571
274.8555
282.7247
0.3 0.3 0.0
171.7844
176.4708
241.9217
251.6255
259.509
278.0478
0.3 0.3 0.1
166.0389
183.2107
235.9362
248.9711
267.8023
284.982
0.3 0.3 0.2
163.3546
202.2571
213.0644
244.1112
284.1625
294.3153
0.3 0.3 0.3
178.6792
185.6885
224.1299
229.5667
294.942
296.19
0.3 0.3 0.4
165.9475
204.0729
209.8732
240.7118
288.2475
295.791
0.3 0.3 -0.5
163.7656
187.9998
230.0247
248.9083
272.2365
288.0966
P	=	199.8	V	=	131.6005	E	=	-655.47543306
0.0 0.0 0.0
-0.0
0.0
0.0
227.4981
227.4981
341.7174
0.0 0.0 0.1
57.0004
57.0004
110.6541
220.9177
220.9177
337.4976
0.0 0.0 0.2
106.4131
106.4131
198.8786
198.8786
206.3923
322.7349
0.0 0.0 0.3
150.442
150.442
162.3838
162.3838
275.507
289.72
0.0 0.0 0.4
119.3198
119.3198
189.6433
189.6433
229.1674
315.6344
0.0 0.0 -0.5
71.9459
71.9459
140.1278
216.3299
216.3299
334.5804
0.0 0.1 0.0
52.2119
63.0753
112.5637
234.3587
245.3943
338.0648
0.0 0.1 0.1
85.6469
87.9215
148.5553
228.4437
238.6555
334.7774
0.0 0.1 0.2
125.2507
132.1367
208.5455
217.052
220.2561
322.405
0.0 0.1 0.3
164.6701
172.3108
175.4894
183.2644
280.2991
293.0321
0.0 0.1 0.4
136.6494
143.871
200.1877
208.4995
239.4992
316.1832
0.0 0.1 -0.5
96.6011
101.1722
168.1364
224.3099
234.0826
332.425
0.0 0.2 0.0
102.6138
115.8634
205.4107
249.4026
282.0611
327.7057
0.0 0.2 0.1
120.3198
130.3214
223.9575
244.8266
272.8041
328.4072
0.0 0.2 0.2
159.3731
160.9008
229.2095
248.0487
263.5631
324.9221
0.0 0.2 0.3
193.6765
201.3478
202.5821
212.701
300.3572
308.254
0.0 0.2 0.4
170.3414
171.53
222.5591
238.8207
275.1547
321.8225
0.0 0.2 -0.5
130.3191
138.2584
234.3021
241.6084
267.103
328.2643
0.0 0.3 0.0
148.4152
151.026
263.0031
266.1657
311.6514
312.5372
0.0 0.3 0.1
154.2009
162.6819
259.3849
279.4506
289.5537
328.1683
0.0 0.3 0.2
175.6004
189.031
247.0545
258.0163
307.3441
335.9288
0.0 0.3 0.3
210.1826
217.7272
221.0787
225.2882
328.3747
332.009
0.0 0.3 0.4
184.5279
197.3688
241.7282
247.9315
314.4892
336.1448
0.0 0.3 -0.5
158.5682
169.3452
256.8525
280.0943
288.3532
331.3673
0.0 0.4 0.0
167.0569
186.1059
270.6234
295.107
295.6622
323.1887
0.0 0.4 0.1
177.5469
183.3751
267.1339
280.5005
308.7565
333.2614
0.0 0.4 0.2
187.2745
202.143
252.3102
255.8749
330.9824
344.3943
0.0 0.4 0.3
209.4958
218.552
229.1794
236.1658
344.5728
346.1713
0.0 0.4 0.4
191.7226
210.0402
242.8498
251.0874
336.1056
346.0064
0.0 0.4 -0.5
182.9934
183.6739
264.7704
273.4079
315.227
337.0995
0.0 -0.5 0.0
170.0136
211.7963
273.3913
281.2902
303.9773
321.449
0.0 -0.5 0.1
180.1302
201.1376
269.5408
270.9212
318.2047
331.3033
0.0 -0.5 0.2
192.1137
204.3593
246.85
257.868
338.4935
344.6841
0.0 -0.5 0.3
206.968
215.1566
231.2871
238.2282
348.274
348.9714
0.0 -0.5 0.4
193.6719
212.2218
238.0678
253.0621
342.516
346.9745
0.0 -0.5 -0.5
186.1103
196.9471
265.2544
267.018
324.5801
335.6694
0.1 0.1 0.0
73.4461
88.1841
153.4624
240.808
259.5442
334.5072
0.1 0.1 0.1
100.806
106.0326
179.4831
235.4534
252.32
332.2781
0.1 0.1 0.2
140.597
145.1478
217.3475
230.3561
235.2899
322.5937
0.1 0.1 0.3
176.7434
184.0787
188.7626
196.9972
286.3212
297.3851
0.1 0.1 0.4
151.0581
157.1124
209.7407
221.7614
251.3745
317.3709
0.1 0.1 -0.5
113.242
115.5194
194.0747
231.7044
247.5407
330.5609
0.1 0.2 0.0
114.0316
136.3902
215.122
260.5973
286.5122
324.388
0.1 0.2 0.1
126.6018
149.1116
232.7151
257.1244
275.7349
326.6324
0.1 0.2 0.2
159.763
176.8492
240.4053
249.2973
272.8493
325.7702
0.1 0.2 0.3
198.0073
202.7413
217.2727
219.0803
305.5023
312.3383
0.1 0.2 0.4
170.9593
185.4066
234.7715
239.9883
283.1528
323.5163
0.1 0.2 -0.5
134.5258
156.2373
241.2291
255.6658
269.4303
327.1964
0.1 0.3 0.0
155.42
172.7898
255.7184
283.8499
309.4888
309.762
0.1 0.3 0.1
157.0983
183.9345
263.9589
282.2561
290.3811
326.0914
0.1 0.3 0.2
172.7367
208.0527
249.9231
263.6588
308.5833
334.4794
0.1 0.3 0.3
202.7422
212.098
237.8109
244.0907
328.4168
331.7259
0.1 0.3 0.4
180.2711
215.1411
241.1638
258.7378
315.3022
335.0007
0.1 0.3 -0.5
159.7105
190.1195
264.3318
276.8324
292.5915
329.4049
0.1 0.4 0.0
189.9425
190.6653
273.9274
292.7784
298.4435
321.6233
0.1 0.4 0.1
182.6213
202.4313
269.6733
282.068
308.9407
330.432
0.1 0.4 0.2
183.3486
224.4307
242.0964
273.9281
328.7151
341.1248
0.1 0.4 0.3
201.9651
209.8499
250.1406
256.4476
341.9763
343.4472
0.1 0.4 0.4
186.8874
228.9896
235.6713
269.8016
333.7001
342.8542
0.1 0.4 -0.5
181.2456
208.0187
262.8682
280.6286
314.232
333.9941
0.2 0.2 0.0
141.1377
156.2822
248.1886
271.7542
304.7848
315.224
0.2 0.2 0.1
146.778
168.2632
257.1994
273.6825
286.9482
325.9149
0.2 0.2 0.2
169.3377
194.3503
248.0434
258.0742
298.8054
332.1013
0.2 0.2 0.3
203.5998
212.4829
226.7533
232.7617
322.1085
326.3868
0.2 0.2 0.4
178.5076
202.409
240.8638
250.4584
306.5144
331.8662
0.2 0.2 -0.5
151.3861
174.9314
257.554
276.2448
281.7445
328.6325
0.2 0.3 0.0
173.1069
199.0662
260.7972
301.2072
301.352
310.4974
0.2 0.3 0.1
170.1765
208.3012
272.4876
278.2673
302.909
324.545
0.2 0.3 0.2
177.1364
227.8016
246.7668
277.0755
316.5605
334.7816
0.2 0.3 0.3
200.301
208.7722
256.0557
261.8971
332.74
335.0732
0.2 0.3 0.4
182.3675
228.4665
243.2494
273.914
322.1348
336.0729
0.2 0.3 -0.5
170.3817
213.5795
268.5392
277.3142
304.799
328.2602
0.2 0.4 0.0
202.3267
228.3734
272.878
285.3311
307.9084
320.7674
0.2 0.4 0.1
192.0899
236.2947
263.9419
286.6813
317.1513
323.2213
0.2 0.4 0.2
186.3685
229.753
257.1831
294.8527
326.0689
334.1231
0.2 0.4 0.3
197.8332
203.5827
277.5361
282.6957
337.2441
338.2695
0.2 0.4 0.4
188.0317
221.5226
263.049
292.6674
330.1
336.3399
0.2 0.4 -0.5
188.8
240.2516
255.4764
291.6047
318.5758
326.3951
0.3 0.3 0.0
194.4836
194.6859
275.2519
290.6136
299.969
321.9052
0.3 0.3 0.1
185.2822
207.0211
268.6802
283.0959
310.2643
330.0931
0.3 0.3 0.2
184.0733
228.359
240.441
276.7829
329.4449
340.7879
0.3 0.3 0.3
201.1161
208.6631
253.7939
259.956
342.1886
343.518
0.3 0.3 0.4
187.113
229.0639
237.8292
272.8726
334.2779
342.6102
0.3 0.3 -0.5
183.3409
212.5227
261.2549
282.5433
315.3836
333.5854
P	=	499.77	V	=	122.3297	E	=	-655.45396297
0.0 0.0 0.0
-0.0
-0.0
0.0
256.5323
256.5323
404.5383
0.0 0.0 0.1
67.3804
67.3804
127.727
249.321
249.321
397.5844
0.0 0.0 0.2
123.7645
123.7645
224.9938
224.9938
238.3776
376.4517
0.0 0.0 0.3
172.0253
172.0253
184.9169
184.9169
318.8205
335.4944
0.0 0.0 0.4
137.8968
137.8968
214.9159
214.9159
264.521
367.3341
0.0 0.0 -0.5
84.5547
84.5547
161.4382
244.3243
244.3243
393.1325
0.0 0.1 0.0
59.2781
71.5415
128.7182
264.3579
277.2546
399.8203
0.0 0.1 0.1
98.4789
101.3919
171.1301
257.807
269.785
393.8248
0.0 0.1 0.2
143.8662
151.9069
235.6969
245.8351
254.4265
375.4336
0.0 0.1 0.3
187.4144
196.29
199.181
208.2259
324.2357
339.0711
0.0 0.1 0.4
156.4364
164.8368
226.527
236.2734
276.6397
367.3924
0.0 0.1 -0.5
111.1276
116.5982
193.785
253.2677
264.749
389.9786
0.0 0.2 0.0
116.2452
131.5561
235.6126
281.8365
320.4706
386.5339
0.0 0.2 0.1
137.8342
148.0684
257.1676
276.6084
310.2781
385.0223
0.0 0.2 0.2
182.6074
182.7772
258.9223
282.0856
303.4543
377.3173
0.0 0.2 0.3
219.2246
229.0654
229.533
242.085
346.627
355.9606
0.0 0.2 0.4
193.0755
196.2392
251.5172
271.675
316.8819
372.9952
0.0 0.2 -0.5
149.4867
156.9879
269.1073
272.9889
303.9188
383.757
0.0 0.3 0.0
167.9592
171.8874
298.3916
306.8856
357.3702
367.1893
0.0 0.3 0.1
174.7959
184.6171
294.0975
321.6887
334.5819
381.945
0.0 0.3 0.2
200.0305
213.8798
279.7675
296.7168
354.1038
389.9131
0.0 0.3 0.3
240.6436
246.3163
253.2946
254.8408
379.1792
383.7526
0.0 0.3 0.4
210.4213
223.1635
273.7079
284.954
362.3732
389.7281
0.0 0.3 -0.5
179.894
191.8789
291.1599
322.5985
332.6181
385.4229
0.0 0.4 0.0
190.9475
211.019
308.6186
342.5631
345.5507
375.1423
0.0 0.4 0.1
202.0772
207.6759
304.4462
326.469
358.1973
388.3266
0.0 0.4 0.2
213.0787
229.165
291.1702
292.8915
383.4162
401.7973
0.0 0.4 0.3
241.1109
252.1395
260.1086
268.1432
400.2493
402.5765
0.0 0.4 0.4
218.7463
238.0161
281.6823
285.6212
389.4451
403.4396
0.0 0.4 -0.5
207.2941
208.6315
301.6736
318.095
365.344
393.0916
0.0 -0.5 0.0
195.3252
241.2266
313.0224
326.7811
354.83
377.5412
0.0 -0.5 0.1
205.8994
230.0807
308.5095
314.87
370.8053
389.0017
0.0 -0.5 0.2
221.3712
232.4974
286.7289
294.7982
394.4632
404.6115
0.0 -0.5 0.3
239.781
249.4056
263.561
271.6365
407.2635
408.5349
0.0 -0.5 0.4
223.5503
241.3514
276.5161
289.1944
399.4056
407.0844
0.0 -0.5 -0.5
212.2397
225.7893
305.5844
308.3495
378.0133
394.0938
0.1 0.1 0.0
83.305
100.0224
175.6528
271.8111
293.7819
395.2444
0.1 0.1 0.1
116.0067
121.0212
206.2531
265.8207
285.735
390.427
0.1 0.1 0.2
160.4873
166.5358
245.5379
261.0971
271.5397
375.2125
0.1 0.1 0.3
200.5738
208.976
214.3967
223.7918
330.9543
343.8495
0.1 0.1 0.4
172.0459
179.6943
237.163
251.4892
290.1145
368.3666
0.1 0.1 -0.5
130.1264
132.0612
223.2081
261.6761
280.4331
387.3046
0.1 0.2 0.0
129.0226
154.6512
246.192
295.7618
325.9799
382.3047
0.1 0.2 0.1
144.5087
169.0818
265.8743
292.3801
314.2476
382.6864
0.1 0.2 0.2
182.7603
200.3093
271.6496
284.0875
314.2341
378.3754
0.1 0.2 0.3
225.0776
229.3512
247.2742
248.6016
352.5157
360.687
0.1 0.2 0.4
195.1971
209.7852
265.5013
273.5137
326.0896
375.0438
0.1 0.2 -0.5
153.7762
177.0502
274.4129
291.9828
307.2217
382.3479
0.1 0.3 0.0
175.5914
196.2328
291.4536
326.2759
355.531
363.3184
0.1 0.3 0.1
177.5435
208.4901
299.3652
325.768
335.6946
379.827
0.1 0.3 0.2
195.7619
235.3107
286.8653
300.3497
355.9561
388.9219
0.1 0.3 0.3
231.2747
241.9454
270.3544
277.064
379.4924
383.7771
0.1 0.3 0.4
204.5685
243.1675
277.3612
294.1016
363.6164
389.0314
0.1 0.3 -0.5
180.5125
215.2655
299.8213
319.4532
337.981
383.641
0.1 0.4 0.0
215.7492
216.5149
312.5929
341.8502
346.2025
373.3531
0.1 0.4 0.1
206.5795
230.0659
310.1248
326.0561
358.9588
385.1964
0.1 0.4 0.2
207.5104
254.4699
281.77
313.2588
380.9919
398.5325
0.1 0.4 0.3
231.3443
241.2344
285.1155
292.3278
397.269
399.5352
0.1 0.4 0.4
211.9551
260.4133
273.305
308.2417
386.7492
400.2342
0.1 0.4 -0.5
204.8937
236.1861
304.236
322.6865
364.7267
389.8276
0.2 0.2 0.0
159.5774
177.4877
283.3336
310.7891
348.7059
370.625
0.2 0.2 0.1
166.43
190.7647
291.57
314.7328
330.2312
380.2044
0.2 0.2 0.2
192.7105
219.9246
281.5464
295.3687
344.2129
385.6459
0.2 0.2 0.3
232.0326
241.4544
257.9574
264.1767
371.7792
377.1051
0.2 0.2 0.4
203.1915
228.8885
274.2908
285.7215
353.066
384.8212
0.2 0.2 -0.5
171.7944
198.1133
291.578
317.4273
324.77
382.8679
0.2 0.3 0.0
195.3242
226.016
297.5836
347.5724
352.9245
357.6837
0.2 0.3 0.1
191.7643
236.1211
309.7904
323.4889
350.5769
378.1379
0.2 0.3 0.2
199.616
257.7431
287.2106
314.4285
366.0999
390.4621
0.2 0.3 0.3
228.5797
239.1012
291.2684
297.5994
385.2788
388.5628
0.2 0.3 0.4
205.9332
260.1972
280.822
311.0028
372.321
391.4652
0.2 0.3 -0.5
191.8407
241.8605
311.1158
316.1917
352.9819
382.8838
0.2 0.4 0.0
228.4051
260.0199
312.6988
332.2011
356.6742
372.2768
0.2 0.4 0.1
217.2965
268.6022
309.6979
327.6669
368.9476
376.8871
0.2 0.4 0.2
210.149
268.709
295.2664
336.2899
378.8772
391.5231
0.2 0.4 0.3
226.099
234.4315
317.0178
322.7885
392.1052
393.975
0.2 0.4 0.4
212.1812
259.1843
300.9809
333.9952
383.2362
393.6701
0.2 0.4 -0.5
213.4877
272.9365
301.1136
332.7214
370.6602
381.633
0.3 0.3 0.0
220.0727
221.9512
314.3183
339.0459
348.1009
374.0855
0.3 0.3 0.1
209.6935
235.3784
310.3342
326.3049
360.7083
385.0352
0.3 0.3 0.2
208.3684
259.0007
280.5155
316.6254
382.0908
398.4571
0.3 0.3 0.3
230.404
240.0152
289.4593
296.53
397.767
399.8871
0.3 0.3 0.4
212.2074
262.5983
274.2504
311.9129
387.6664
400.2646
0.3 0.3 -0.5
207.3919
241.4046
303.4056
324.4079
366.3169
389.6076
P	=	749.77	V	=	116.6486	E	=	-655.43000705
0.0 0.0 0.0
-0.0
-0.0
0.0
273.5944
273.5944
446.5527
0.0 0.0 0.1
70.758
70.758
140.0231
265.9046
265.9046
437.8827
0.0 0.0 0.2
130.6976
130.6976
239.8512
239.8512
260.2268
412.3107
0.0 0.0 0.3
182.7983
182.7983
196.6422
196.6422
347.5025
365.7249
0.0 0.0 0.4
145.7863
145.7863
229.1031
229.1031
288.3056
401.753
0.0 0.0 -0.5
88.7727
88.7727
176.4988
260.6126
260.6126
432.4351
0.0 0.1 0.0
64.3743
75.6695
138.7763
282.1914
296.4025
441.1106
0.0 0.1 0.1
104.0787
109.4806
185.45
275.1407
288.3968
433.5335
0.0 0.1 0.2
152.415
162.0626
251.3405
262.6616
276.9173
411.0609
0.0 0.1 0.3
199.3313
209.3128
211.9452
222.0645
353.1844
369.4807
0.0 0.1 0.4
165.816
175.6094
241.538
252.4102
300.9778
401.6902
0.0 0.1 -0.5
117.3809
125.1565
210.2801
270.2985
283.0363
428.7692
0.0 0.2 0.0
125.892
139.3429
254.448
301.4963
344.2806
425.7844
0.0 0.2 0.1
149.2173
157.1206
277.9977
295.7425
333.4516
423.0913
0.0 0.2 0.2
194.2134
196.7233
276.4345
302.9877
328.9187
412.4737
0.0 0.2 0.3
233.5699
244.0997
246.3153
259.693
376.7838
387.2521
0.0 0.2 0.4
205.3667
210.8123
268.4562
291.7893
343.6151
407.1809
0.0 0.2 -0.5
161.515
166.631
290.9863
291.81
326.693
421.152
0.0 0.3 0.0
181.3946
182.5221
320.0326
332.3425
386.1278
403.4334
0.0 0.3 0.1
188.7823
196.4613
315.2429
348.3273
363.0622
417.4888
0.0 0.3 0.2
215.7441
228.0815
299.3444
320.9919
384.1412
425.2644
0.0 0.3 0.3
259.5538
262.9367
272.0853
273.2468
412.0718
417.3127
0.0 0.3 0.4
226.7929
237.9719
292.7255
308.1197
393.1882
424.727
0.0 0.3 -0.5
194.1914
204.2902
311.9998
349.3634
360.8245
421.0436
0.0 0.4 0.0
203.5263
227.6033
331.7701
372.2887
378.3278
407.9017
0.0 0.4 0.1
215.7518
224.3164
327.1989
355.7775
389.5889
423.7132
0.0 0.4 0.2
230.3915
244.9595
312.3965
318.1903
417.2041
438.7529
0.0 0.4 0.3
260.9939
273.0378
278.2222
286.9064
436.1525
438.9058
0.0 0.4 0.4
236.4938
254.3661
305.8276
306.2544
423.8519
440.4024
0.0 0.4 -0.5
222.8154
224.0101
324.1524
346.4176
397.3
429.1218
0.0 -0.5 0.0
209.0074
260.3331
336.9942
356.4556
386.7263
412.8087
0.0 -0.5 0.1
220.5456
249.0785
332.1872
343.0837
404.1638
425.7886
0.0 -0.5 0.2
240.3073
249.0221
311.8742
316.9883
430.3946
443.0653
0.0 -0.5 0.3
260.3138
270.7561
282.3886
291.1647
445.1448
446.7593
0.0 -0.5 0.4
242.6572
258.3928
300.6756
310.7504
435.9471
445.652
0.0 -0.5 -0.5
227.3261
244.7504
329.0255
335.8894
412.0329
431.4546
0.1 0.1 0.0
90.3722
105.9134
189.4405
290.4284
314.6428
435.8331
0.1 0.1 0.1
125.476
128.3738
222.9819
283.9281
306.0103
429.5742
0.1 0.1 0.2
170.3817
178.4622
261.9587
279.4577
294.907
410.6491
0.1 0.1 0.3
213.4805
222.7878
228.8854
239.1884
360.2351
374.4941
0.1 0.1 0.4
182.6826
192.1731
252.9919
269.148
315.1436
402.5867
0.1 0.1 -0.5
138.8786
141.3664
241.5279
279.4842
300.3558
425.6136
0.1 0.2 0.0
139.5976
164.2696
265.1646
317.5751
350.4865
420.9104
0.1 0.2 0.1
156.1927
179.8154
286.1831
314.3841
338.1103
420.2425
0.1 0.2 0.2
196.5527
213.3451
290.3486
305.5382
340.6896
413.4491
0.1 0.2 0.3
240.9477
244.6688
265.0137
266.3853
383.1183
392.3181
0.1 0.2 0.4
209.5591
223.4273
283.7921
294.1258
353.639
409.2654
0.1 0.2 -0.5
165.9321
188.3139
294.4951
314.9319
330.6536
419.3257
0.1 0.3 0.0
189.4723
208.9825
313.1093
353.0247
384.3103
398.9795
0.1 0.3 0.1
191.3646
222.4434
321.091
353.0655
364.3846
415.0706
0.1 0.3 0.2
210.6204
251.3523
309.021
323.3748
386.4706
424.2698
0.1 0.3 0.3
248.6469
259.8267
290.1383
297.0512
412.5821
417.4903
0.1 0.3 0.4
219.9386
259.6926
299.288
315.9576
394.8075
424.075
0.1 0.3 -0.5
194.4428
229.7327
321.5329
346.2096
366.8439
419.0652
0.1 0.4 0.0
231.363
232.5242
336.1916
374.0774
376.1795
406.0134
0.1 0.4 0.1
222.3883
246.6055
334.3183
354.3401
390.7094
420.2282
0.1 0.4 0.2
223.5998
272.6775
305.3071
337.6886
414.7375
435.1997
0.1 0.4 0.3
249.4786
260.1715
306.4421
314.1994
432.9563
435.6253
0.1 0.4 0.4
228.351
279.0771
296.0299
331.9697
421.0486
436.9216
0.1 0.4 -0.5
220.702
253.1203
328.8699
349.545
396.9196
425.5187
0.2 0.2 0.0
172.3651
188.6764
304.6412
335.3561
376.2603
407.4205
0.2 0.2 0.1
179.5424
203.2502
312.537
340.6168
357.4196
416.2105
0.2 0.2 0.2
207.3601
234.7375
301.6322
318.7217
373.3734
420.7845
0.2 0.2 0.3
249.1364
258.5959
276.8454
283.1729
403.9872
410.0578
0.2 0.2 0.4
218.4066
244.2912
294.236
307.7732
383.0311
419.4828
0.2 0.2 -0.5
185.1629
211.1618
312.3273
343.2796
352.0365
418.7217
0.2 0.3 0.0
210.4944
241.3825
319.8887
376.8649
386.9683
387.3855
0.2 0.3 0.1
206.5359
252.3665
332.8294
351.6607
380.853
412.7241
0.2 0.3 0.2
214.7102
275.5394
311.5451
337.6045
398.1027
426.08
0.2 0.3 0.3
245.9992
257.325
312.8417
319.4596
419.3013
423.0813
0.2 0.3 0.4
221.4126
278.5993
303.9355
333.9102
404.8395
426.9433
0.2 0.3 -0.5
206.5414
258.5049
335.5015
342.1867
383.6524
417.9735
0.2 0.4 0.0
245.9006
278.8641
337.0457
362.934
387.3087
404.9634
0.2 0.4 0.1
234.0717
288.074
337.2166
353.4278
401.7848
410.9584
0.2 0.4 0.2
226.3023
290.0176
319.0751
362.3427
412.9446
427.613
0.2 0.4 0.3
243.708
252.8666
341.4662
347.6467
427.5478
429.733
0.2 0.4 0.4
228.4313
280.1477
324.5174
359.8639
417.6612
429.8474
0.2 0.4 -0.5
230.0209
292.6272
327.9982
358.6561
403.7661
416.4939
0.3 0.3 0.0
237.1522
237.3486
338.1685
370.8245
378.3214
407.0405
0.3 0.3 0.1
225.7741
252.4132
335.1702
354.1278
392.7195
420.1109
0.3 0.3 0.2
224.5464
277.6161
304.1875
341.3634
416.0736
435.21
0.3 0.3 0.3
248.4927
258.913
311.2559
318.8752
433.6292
436.1344
0.3 0.3 0.4
228.6464
281.9267
296.7964
336.0279
422.1879
437.0576
0.3 0.3 -0.5
223.4246
258.8342
328.5362
351.0125
398.78
425.3408
P	=	1000.19	V	=	112.0518	E	=	-655.40278554
0.0 0.0 0.0
-0.0
-0.0
0.0
288.3301
288.3301
483.1128
0.0 0.0 0.1
71.892
71.892
149.9343
279.9944
279.9944
472.8343
0.0 0.0 0.2
136.1506
136.1506
252.8707
252.8707
278.7306
443.4575
0.0 0.0 0.3
193.221
193.221
207.8887
207.8887
372.544
392.1287
0.0 0.0 0.4
152.6561
152.6561
241.8787
241.8787
308.6326
431.7491
0.0 0.0 -0.5
90.6516
90.6516
188.7091
274.4474
274.4474
466.5187
0.0 0.1 0.0
68.1603
78.9255
147.3937
297.5644
312.9168
477.0046
0.0 0.1 0.1
107.5387
115.1558
197.3412
289.8949
304.2636
467.9605
0.0 0.1 0.2
159.1178
170.1549
264.985
277.2578
296.1379
442.0258
0.0 0.1 0.3
210.3828
221.1663
223.7754
234.6683
378.519
396.0893
0.0 0.1 0.4
173.7105
184.6516
254.9029
266.6561
321.9119
431.6037
0.0 0.1 -0.5
121.2932
131.1575
223.9673
284.7959
298.6206
462.404
0.0 0.2 0.0
133.4032
145.6756
270.7185
318.3645
364.7625
459.8209
0.0 0.2 0.1
157.9518
163.9241
295.8606
312.0552
353.2556
456.0649
0.0 0.2 0.2
203.4393
207.9777
291.5641
320.8655
351.0338
443.0652
0.0 0.2 0.3
246.149
257.3601
260.7234
274.864
403.3095
414.7406
0.0 0.2 0.4
215.463
222.8051
283.2393
309.0818
366.919
437.0382
0.0 0.2 -0.5
170.7615
173.8081
307.8647
309.7261
346.1445
453.5601
0.0 0.3 0.0
191.507
192.4689
338.5303
354.5108
410.894
434.7988
0.0 0.3 0.1
200.2621
206.0953
333.2528
371.4399
387.4709
448.3237
0.0 0.3 0.2
228.8638
239.7497
316.1223
341.6397
410.5258
455.9947
0.0 0.3 0.3
275.6626
277.2343
286.9745
290.2344
441.038
446.8009
0.0 0.3 0.4
240.5398
250.2958
309.1069
327.8623
420.2847
455.2489
0.0 0.3 -0.5
205.9312
214.295
329.7562
372.202
385.4232
451.9041
0.0 0.4 0.0
214.5023
241.9203
351.584
398.1885
406.7302
436.3974
0.0 0.4 0.1
227.445
238.6734
346.573
380.9613
417.1341
454.3965
0.0 0.4 0.2
245.3453
258.4641
330.5208
339.8238
447.034
470.9379
0.0 0.4 0.3
278.127
290.9792
293.9324
303.1477
467.8702
470.9219
0.0 0.4 0.4
251.8113
268.4022
323.9589
326.507
454.2543
472.6998
0.0 0.4 -0.5
234.872
238.4305
343.2808
370.7434
425.3614
460.3422
0.0 -0.5 0.0
221.1651
277.2283
357.6117
382.2951
414.3441
443.9105
0.0 -0.5 0.1
233.4328
265.7951
352.3859
367.5734
433.1494
458.0921
0.0 -0.5 0.2
256.8551
263.5999
333.6155
335.9339
461.951
476.9398
0.0 -0.5 0.3
278.2017
289.3
298.9688
308.2425
478.726
480.6457
0.0 -0.5 0.4
259.3347
273.4408
321.6009
329.2711
468.1394
479.7027
0.0 -0.5 -0.5
240.5657
261.3994
348.984
359.7761
441.6399
464.2372
0.1 0.1 0.0
95.7107
110.613
201.2945
306.4515
332.6131
471.0846
0.1 0.1 0.1
132.0041
133.9235
237.0926
299.3625
323.3217
463.4995
0.1 0.1 0.2
178.167
187.9908
276.2232
295.2913
315.0189
441.4621
0.1 0.1 0.3
225.1286
235.1352
241.8295
252.8246
385.9187
401.3547
0.1 0.1 0.4
191.5019
202.4977
266.9596
284.5484
336.7994
432.4503
0.1 0.1 -0.5
144.4404
148.7487
256.9518
294.6721
317.3582
458.8225
0.1 0.2 0.0
147.9287
172.1326
281.5644
336.3755
371.5363
454.3574
0.1 0.2 0.1
165.2491
188.1619
303.4709
333.4192
358.4775
452.7502
0.1 0.2 0.2
207.6887
223.8452
306.4388
323.8429
363.7479
443.949
0.1 0.2 0.3
254.5179
257.9124
280.2205
281.8915
410.048
420.1073
0.1 0.2 0.4
221.3575
234.6798
299.6412
311.7843
377.7203
439.1349
0.1 0.2 -0.5
175.3558
197.0044
311.4771
334.8768
350.64
451.3478
0.1 0.3 0.0
200.9747
219.7319
331.7258
376.2878
409.0574
429.7987
0.1 0.3 0.1
202.7248
233.9609
339.6342
376.4825
389.279
445.5565
0.1 0.3 0.2
222.9911
264.6891
327.6371
343.2358
413.3543
454.9226
0.1 0.3 0.3
263.3693
274.9422
307.1603
314.2739
441.7312
447.1011
0.1 0.3 0.4
232.8051
273.5494
317.8069
334.8268
422.3015
454.5737
0.1 0.3 -0.5
205.8846
241.6081
340.0139
369.0239
392.1115
449.6634
0.1 0.4 0.0
244.2382
246.9994
356.3944
401.9346
402.2329
434.4403
0.1 0.4 0.1
235.8948
260.8651
354.719
378.7456
418.589
450.5375
0.1 0.4 0.2
237.393
288.3249
325.1735
358.6662
444.5862
467.0417
0.1 0.4 0.3
265.0007
276.2905
324.935
333.1201
464.4769
467.4022
0.1 0.4 0.4
242.414
295.0766
315.3548
352.3853
451.4008
468.8976
0.1 0.4 -0.5
234.2095
267.6534
349.5429
372.775
425.2424
456.3615
0.2 0.2 0.0
182.7868
198.0298
322.9368
356.6941
399.9426
439.2525
0.2 0.2 0.1
190.1099
213.373
330.4132
363.0773
380.6679
447.4008
0.2 0.2 0.2
219.4091
246.9193
318.7613
338.6516
398.9645
451.3114
0.2 0.2 0.3
263.6291
273.1572
293.0708
299.5956
432.3458
439.006
0.2 0.2 0.4
231.0313
257.1246
311.2157
326.7446
409.3617
449.6987
0.2 0.2 -0.5
195.9287
221.6685
330.0095
365.4192
375.6772
449.7582
0.2 0.3 0.0
223.293
254.4133
339.1496
402.3384
412.9495
416.3349
0.2 0.3 0.1
218.9271
265.9846
352.5639
375.629
407.4467
442.4882
0.2 0.3 0.2
227.4506
290.4985
332.1096
357.423
426.4395
456.8577
0.2 0.3 0.3
260.7738
272.7052
331.3954
338.2536
449.3037
453.3969
0.2 0.3 0.4
234.5078
294.027
323.6211
353.5407
433.6295
457.7309
0.2 0.3 -0.5
218.8661
272.4103
355.6616
364.9512
410.6571
448.1308
0.2 0.4 0.0
261.0278
295.0654
358.1083
389.3898
413.5399
433.6311
0.2 0.4 0.1
248.4464
304.7432
360.5183
375.6638
430.5294
440.3118
0.2 0.4 0.2
240.1407
307.6965
339.6621
384.6463
443.2095
458.7341
0.2 0.4 0.3
258.7255
268.468
362.598
369.0894
458.8608
461.1725
0.2 0.4 0.4
242.3656
297.6283
344.8678
382.0536
448.2452
461.1957
0.2 0.4 -0.5
244.1661
309.4505
350.7445
380.9202
432.9418
446.3889
0.3 0.3 0.0
250.7157
251.932
358.5929
398.2881
404.5529
435.7727
0.3 0.3 0.1
239.5538
267.1284
356.0388
378.2215
420.8041
450.4798
0.3 0.3 0.2
238.4375
293.6469
324.1867
362.5792
446.1342
467.1337
0.3 0.3 0.3
263.9874
275.0065
330.1657
338.2088
465.3127
468.0587
0.3 0.3 0.4
242.7677
298.3695
316.1329
356.7602
452.7419
469.1327
0.3 0.3 -0.5
237.1584
273.8316
349.6528
373.9959
427.3281
456.2347
P	=	1500.47	V	=	104.9063	E	=	-655.34267339
0.0 0.0 0.0
-0.0
0.0
0.0
314.646
314.646
545.2041
0.0 0.0 0.1
78.4784
78.4784
165.3877
305.6037
305.6037
532.162
0.0 0.0 0.2
147.9435
147.9435
275.6669
275.6669
308.5746
496.1596
0.0 0.0 0.3
209.9239
209.9239
225.8289
225.8289
414.1949
436.2476
0.0 0.0 0.4
165.5365
165.5365
263.6381
263.6381
341.6403
482.4466
0.0 0.0 -0.5
98.5492
98.5492
207.7756
299.619
299.619
524.3853
0.0 0.1 0.0
73.2809
85.6483
162.6057
324.9017
342.0951
537.9471
0.0 0.1 0.1
117.0344
125.074
218.0487
316.5176
332.6354
526.435
0.0 0.1 0.2
172.9746
185.2154
288.9299
302.7064
327.8449
494.4637
0.0 0.1 0.3
228.7293
240.7832
243.2528
255.4353
420.7007
440.5523
0.0 0.1 0.4
188.562
200.7473
277.8843
291.0687
356.3478
482.1784
0.0 0.1 -0.5
131.7995
142.4382
247.1271
310.9862
326.5098
519.56
0.0 0.2 0.0
143.8097
158.323
299.2516
348.2129
400.6023
517.5453
0.0 0.2 0.1
171.3008
178.3726
327.2023
341.1791
387.9974
512.2127
0.0 0.2 0.2
221.4588
226.7734
318.2722
351.8231
388.7542
495.0871
0.0 0.2 0.3
268.0962
280.274
284.9954
300.4813
447.8561
460.9335
0.0 0.2 0.4
234.3708
242.9012
309.1166
338.8513
406.3012
487.6917
0.0 0.2 -0.5
185.3697
189.026
336.5683
342.3594
380.2794
508.8249
0.0 0.3 0.0
208.3424
208.7112
371.2963
393.1027
454.3152
487.8425
0.0 0.3 0.1
217.7442
224.7625
365.304
411.2962
429.7394
501.4476
0.0 0.3 0.2
250.1224
261.6199
345.9424
377.019
455.726
508.7467
0.0 0.3 0.3
302.5035
302.7597
313.3864
318.7165
490.2205
496.8903
0.0 0.3 0.4
262.9689
273.0064
338.1744
361.596
466.4906
507.4863
0.0 0.3 -0.5
224.1987
233.6279
361.4004
411.415
428.0771
505.1065
0.0 0.4 0.0
234.7411
263.2157
386.7933
443.2728
454.4683
486.4113
0.0 0.4 0.1
248.9902
260.8483
381.1022
423.7361
464.7445
507.8107
0.0 0.4 0.2
269.3601
282.9991
362.8809
376.4772
498.0588
526.4826
0.0 0.4 0.3
306.2694
320.645
322.0389
332.1381
521.9096
525.5377
0.0 0.4 0.4
276.5281
293.7506
355.5732
361.419
506.1167
528.2396
0.0 0.4 -0.5
257.0253
261.0174
377.4172
412.1474
473.7083
514.5825
0.0 -0.5 0.0
243.0604
303.1493
394.2913
425.3154
462.8609
498.1427
0.0 -0.5 0.1
256.5543
292.0839
388.4256
408.6428
483.6195
514.2022
0.0 -0.5 0.2
283.4615
289.5634
369.8076
369.9438
516.1664
535.2229
0.0 -0.5 0.3
307.2879
319.6004
328.4734
338.6509
535.947
538.3967
0.0 -0.5 0.4
286.1973
300.1927
356.4345
362.3789
523.2363
538.0899
0.0 -0.5 -0.5
264.2574
287.8206
384.6447
399.904
492.9843
521.0502
0.1 0.1 0.0
102.9916
120.1404
222.1666
334.867
364.1902
530.9166
0.1 0.1 0.1
143.317
145.5692
261.9774
327.0766
353.9903
521.1608
0.1 0.1 0.2
193.7848
204.7406
301.2949
322.8367
348.7667
493.6978
0.1 0.1 0.3
244.9008
255.8277
263.6114
275.6485
428.777
446.2875
0.1 0.1 0.4
208.0543
220.3731
291.1492
311.0304
372.8448
482.9759
0.1 0.1 -0.5
156.9696
161.4513
283.6794
321.9893
347.4969
515.3089
0.1 0.2 0.0
159.5525
187.3585
310.0835
369.7079
408.3757
511.063
0.1 0.2 0.1
179.0494
204.9534
333.3538
367.5048
394.0995
508.1716
0.1 0.2 0.2
226.1801
243.8454
334.6967
355.5428
403.1934
495.9005
0.1 0.2 0.3
277.5118
280.863
306.3445
308.5086
455.3999
466.9184
0.1 0.2 0.4
241.0531
255.4657
327.3308
342.2246
418.5648
489.8887
0.1 0.2 -0.5
190.1752
214.4796
340.927
370.2732
385.5841
506.0351
0.1 0.3 0.0
217.5592
239.7182
364.0917
417.1772
452.5376
481.9107
0.1 0.3 0.1
220.171
255.3825
372.1281
416.8749
432.6046
498.1316
0.1 0.3 0.2
243.1487
288.9989
359.8766
377.8754
459.4107
507.5891
0.1 0.3 0.3
288.0933
300.6058
336.9215
344.3749
491.2836
497.4651
0.1 0.3 0.4
253.9217
298.5011
349.6945
367.8349
469.2078
506.8234
0.1 0.3 -0.5
223.8281
263.66
372.5097
408.3276
435.9383
502.4557
0.1 0.4 0.0
267.3765
268.6506
391.961
447.7599
448.7698
484.3009
0.1 0.4 0.1
257.3876
285.7609
390.4309
420.5764
466.7481
503.326
0.1 0.4 0.2
259.7691
315.9078
359.2723
395.367
495.615
522.0308
0.1 0.4 0.3
290.7298
303.2057
357.3357
366.2389
518.2202
521.66
0.1 0.4 0.4
265.3167
323.0846
348.5167
388.1423
503.1706
523.9282
0.1 0.4 -0.5
255.8063
293.2048
385.4173
413.0343
474.0036
509.9691
0.2 0.2 0.0
197.629
215.7881
354.7044
394.3984
441.4641
493.1344
0.2 0.2 0.1
206.3327
232.672
361.8419
402.1418
421.1225
500.9356
0.2 0.2 0.2
239.2121
269.4138
348.8979
373.0301
442.8275
503.6123
0.2 0.2 0.3
288.1525
298.2027
321.1925
328.1163
480.4304
488.0996
0.2 0.2 0.4
251.929
280.4106
340.8657
359.5328
454.2468
501.3234
0.2 0.2 -0.5
212.8644
241.6514
361.2537
403.5582
416.8972
503.1109
0.2 0.3 0.0
242.0677
278.0253
372.4479
446.9495
458.0509
465.9167
0.2 0.3 0.1
237.9737
290.7157
386.7303
416.8454
453.7348
494.0603
0.2 0.3 0.2
248.0186
317.3016
367.4663
392.1025
474.9347
509.8958
0.2 0.3 0.3
285.3799
298.5436
363.9154
371.1452
500.4235
505.1063
0.2 0.3 0.4
255.8012
321.1996
357.6632
387.8989
482.7519
510.6272
0.2 0.3 -0.5
238.1386
297.63
390.3175
404.5389
457.4111
500.348
0.2 0.4 0.0
284.0085
323.5744
394.479
433.8371
459.9673
483.5765
0.2 0.4 0.1
270.9694
334.0538
400.1909
414.0571
480.386
491.4731
0.2 0.4 0.2
262.4279
337.8849
375.5679
423.4915
494.9005
512.5511
0.2 0.4 0.3
283.4844
294.3861
399.4242
406.4442
512.3016
514.9326
0.2 0.4 0.4
264.9123
327.287
380.4039
420.7397
500.3801
515.2245
0.2 0.4 -0.5
266.5622
339.0102
389.6714
419.3662
483.2933
498.4034
0.3 0.3 0.0
274.1414
274.5985
394.5142
444.4272
450.4518
486.116
0.3 0.3 0.1
261.4599
292.7659
392.314
419.6909
469.323
503.3843
0.3 0.3 0.2
260.9502
321.7962
358.4658
399.7011
497.5228
522.273
0.3 0.3 0.3
289.6273
301.829
363.262
372.0248
519.3429
522.5794
0.3 0.3 0.4
265.7384
326.8809
349.4548
393.0642
504.8573
524.3429
0.3 0.3 -0.5
259.1099
300.1082
386.0949
413.9648
476.475
509.9421
P	=	2000.12	V	=	99.4697	E	=	-655.2783431
0.0 0.0 0.0
-0.0
0.0
0.0
335.6306
335.6306
597.4063
0.0 0.0 0.1
82.1816
82.1816
177.8205
325.9942
325.9942
582.1141
0.0 0.0 0.2
155.7745
155.7745
293.763
293.763
333.0688
540.5812
0.0 0.0 0.3
222.6146
222.6146
239.6866
239.6866
449.003
473.1952
0.0 0.0 0.4
174.4331
174.4331
280.8924
280.8924
368.8118
525.1896
0.0 0.0 -0.5
103.0846
103.0846
223.1007
319.6645
319.6645
573.1699
0.0 0.1 0.0
77.116
90.5222
175.0397
346.785
365.534
589.1709
0.0 0.1 0.1
123.5089
132.3148
234.7989
337.8072
355.4062
575.6498
0.0 0.1 0.2
182.7725
196.2333
307.9674
323.0617
353.9428
538.6341
0.0 0.1 0.3
242.7358
256.0029
258.3104
271.7086
455.9657
477.7892
0.0 0.1 0.4
199.2541
212.6657
296.1071
310.575
384.766
524.789
0.0 0.1 -0.5
138.9013
150.538
265.8659
331.9279
348.8988
567.7204
0.0 0.2 0.0
151.8165
167.7587
322.776
372.2632
429.7549
566.0166
0.0 0.2 0.1
181.6707
189.2546
352.9841
364.643
416.2736
559.4081
0.0 0.2 0.2
235.1437
241.4285
339.5877
376.9022
420.0305
538.8144
0.0 0.2 0.3
285.0729
298.1029
304.2931
320.9372
485.1071
499.5986
0.0 0.2 0.4
248.7458
258.5925
329.6766
362.9437
438.9954
530.2697
0.0 0.2 -0.5
196.6864
200.4896
359.6822
369.173
408.0955
555.312
0.0 0.3 0.0
220.9197
222.0627
397.8059
425.2626
490.0801
532.2903
0.0 0.3 0.1
231.7871
239.5236
391.2521
444.3299
464.7931
546.001
0.0 0.3 0.2
267.2312
278.9738
369.8778
406.0555
493.5416
552.9501
0.0 0.3 0.3
322.8861
324.2015
334.2314
341.7901
531.3834
538.8047
0.0 0.3 0.4
280.9792
290.949
361.4154
389.2504
505.1273
551.2559
0.0 0.3 -0.5
238.8904
248.9631
387.0095
443.715
463.7022
549.7132
0.0 0.4 0.0
251.0851
280.4667
415.3448
481.1431
494.3535
528.1785
0.0 0.4 0.1
266.6138
279.0604
409.1356
459.343
504.8512
552.5614
0.0 0.4 0.2
289.1058
303.0388
389.0498
406.8638
540.9678
573.0964
0.0 0.4 0.3
329.29
344.6748
344.9322
355.4399
567.2568
571.3495
0.0 0.4 0.4
296.7723
314.3427
381.0995
390.3151
549.6823
574.8464
0.0 0.4 -0.5
275.1797
279.6195
405.1377
446.6358
514.4079
560.0469
0.0 -0.5 0.0
261.2435
324.4033
424.0881
461.1627
503.7801
543.9294
0.0 -0.5 0.1
275.86
313.906
417.7467
442.9561
526.1527
561.6118
0.0 -0.5 0.2
305.5783
311.1289
397.3849
400.2296
561.7754
584.4268
0.0 -0.5 0.3
331.2609
344.5814
352.6248
363.4598
584.0682
586.982
0.0 -0.5 0.4
308.442
322.3024
385.4283
389.3504
569.5503
587.3377
0.0 -0.5 -0.5
284.0373
309.8214
413.6809
433.4691
536.2172
569.048
0.1 0.1 0.0
108.499
127.1484
239.2661
357.6959
389.6817
581.1924
0.1 0.1 0.1
151.6928
154.1372
282.2374
349.3357
378.7369
569.6707
0.1 0.1 0.2
205.227
217.3952
321.2628
344.9812
376.6161
537.6675
0.1 0.1 0.3
260.0694
271.8657
280.6872
293.6807
464.6147
483.9144
0.1 0.1 0.4
220.2856
233.9559
310.3484
332.2954
402.6571
525.5135
0.1 0.1 -0.5
165.9793
170.9371
305.4173
343.9377
371.824
562.8782
0.1 0.2 0.0
168.5559
198.9397
333.3642
396.98
438.3755
558.6575
0.1 0.2 0.1
189.8128
217.8601
357.507
395.671
423.1091
554.7309
0.1 0.2 0.2
240.6222
259.2899
357.3323
381.2694
435.9892
539.5306
0.1 0.2 0.3
295.5418
298.7375
327.0732
329.8105
493.3303
506.0923
0.1 0.2 0.4
256.4309
271.501
349.4359
366.8981
452.5501
532.5113
0.1 0.2 -0.5
201.7076
227.9231
364.6672
399.5598
414.0649
552.0034
0.1 0.3 0.0
230.7455
255.4187
390.4056
451.1689
488.3787
525.5473
0.1 0.3 0.1
234.1695
272.4668
398.5077
450.1893
468.7652
542.1698
0.1 0.3 0.2
259.2992
308.4254
385.8134
406.3492
498.0343
551.6696
0.1 0.3 0.3
307.8186
321.0184
360.8861
368.564
532.7705
539.6037
0.1 0.3 0.4
270.7776
318.3604
375.4243
394.8005
508.5107
550.5568
0.1 0.3 -0.5
238.238
281.29
398.85
440.7176
472.6292
546.6596
0.1 0.4 0.0
286.1498
286.2131
420.8746
485.8795
487.8608
525.983
0.1 0.4 0.1
274.9756
306.1693
419.4114
455.4126
507.3183
547.5085
0.1 0.4 0.2
278.059
338.4653
387.1483
425.5166
538.5799
568.1065
0.1 0.4 0.3
311.5538
324.9606
383.7404
393.1785
563.3038
567.138
0.1 0.4 0.4
283.9507
345.8784
375.6801
417.4074
546.6987
570.0386
0.1 0.4 -0.5
273.521
314.1718
414.5259
446.5751
515.0931
554.8456
0.2 0.2 0.0
209.3286
229.5435
380.4952
425.6577
475.5556
538.2995
0.2 0.2 0.1
219.2402
247.882
387.3045
434.4615
454.5404
545.8479
0.2 0.2 0.2
254.9644
287.2143
373.0968
401.1583
479.4964
547.4429
0.2 0.2 0.3
307.6079
317.9798
343.7178
351.0096
520.6643
529.1713
0.2 0.2 0.4
268.5043
298.7793
364.6013
386.3286
491.7568
544.5833
0.2 0.2 -0.5
226.342
257.442
386.5378
434.9025
451.2261
547.8661
0.2 0.3 0.0
257.1418
296.8683
399.6378
483.9976
495.4946
507.3617
0.2 0.3 0.1
253.3836
310.6583
414.6
450.8765
492.6107
537.126
0.2 0.3 0.2
264.6103
338.905
396.4881
420.2703
515.7571
554.205
0.2 0.3 0.3
305.0949
319.222
390.2622
397.7185
543.2578
548.3754
0.2 0.3 0.4
272.9025
343.0006
385.6082
415.73
524.0485
554.8306
0.2 0.3 -0.5
253.7489
318.0029
418.4335
437.3659
496.7228
543.9444
0.2 0.4 0.0
302.7233
346.8506
424.3707
470.8457
498.4521
525.5402
0.2 0.4 0.1
289.39
358.0769
432.7956
445.8878
522.2941
534.2156
0.2 0.4 0.2
280.6014
362.3643
405.3694
455.2471
538.5304
557.4664
0.2 0.4 0.3
303.4852
315.3027
429.5859
436.9698
557.108
559.9264
0.2 0.4 0.4
283.2249
351.3314
409.7885
452.3393
544.3124
560.3306
0.2 0.4 -0.5
284.9011
363.238
421.8809
450.97
525.7433
541.7861
0.3 0.3 0.0
292.1878
294.0422
423.7366
482.9167
488.8783
528.2613
0.3 0.3 0.1
279.4094
313.8232
421.7504
454.2613
510.1913
547.6904
0.3 0.3 0.2
279.3701
344.8464
386.5605
430.1673
540.8
568.4834
0.3 0.3 0.3
310.3943
323.5275
390.2786
399.5753
564.6717
568.2822
0.3 0.3 0.4
284.4475
350.092
376.8267
422.7753
548.6847
570.6097
0.3 0.3 -0.5
277.1361
321.7078
415.7193
447.2385
517.8922
554.9219
P	=	2499.94	V	=	95.0958	E	=	-655.21166377
0.0 0.0 0.0
-0.0
0.0
0.0
354.6993
354.6993
642.8613
0.0 0.0 0.1
86.3439
86.3439
188.0804
344.5377
344.5377
625.6144
0.0 0.0 0.2
163.9782
163.9782
310.3957
310.3957
354.121
579.4458
0.0 0.0 0.3
234.9085
234.9085
252.9166
252.9166
479.5736
505.6904
0.0 0.0 0.4
183.5869
183.5869
296.8438
296.8438
392.3787
562.6633
0.0 0.0 -0.5
108.1756
108.1756
235.9006
337.9083
337.9083
615.6825
0.0 0.1 0.0
79.8678
95.0969
186.1038
366.5721
386.5928
633.7533
0.0 0.1 0.1
129.8443
138.4282
249.4578
357.0649
375.909
618.5118
0.0 0.1 0.2
192.4739
206.622
325.3905
341.5368
376.6026
577.2961
0.0 0.1 0.3
256.1464
270.1959
272.5793
286.7898
486.9499
510.5387
0.0 0.1 0.4
209.8102
223.9597
312.8903
328.3406
409.547
562.1584
0.0 0.1 -0.5
145.9473
157.7458
282.1533
350.8881
369.0792
609.7014
0.0 0.2 0.0
157.8474
176.5656
343.6991
393.8209
455.5878
608.1563
0.0 0.2 0.1
190.006
199.3112
375.8702
385.6708
441.3908
600.5457
0.0 0.2 0.2
247.952
254.3138
358.9388
399.2634
447.5644
577.1658
0.0 0.2 0.3
301.0086
314.7603
321.6151
339.2952
517.8736
533.6176
0.0 0.2 0.4
262.2783
272.5628
348.4676
384.4493
467.7563
567.6706
0.0 0.2 -0.5
206.0577
211.1075
380.4201
392.9203
432.8319
595.8986
0.0 0.3 0.0
230.887
234.4732
421.4227
453.8289
521.6681
570.8921
0.0 0.3 0.1
243.2658
253.0008
414.3618
473.5221
495.7315
585.0146
0.0 0.3 0.2
282.036
294.8463
391.4491
431.7055
526.8955
591.8193
0.0 0.3 0.3
341.466
343.4404
353.4351
362.274
567.5818
575.6669
0.0 0.3 0.4
296.7407
307.4496
382.4843
413.7162
539.164
589.7603
0.0 0.3 -0.5
251.0916
262.9285
409.8435
472.1726
495.2228
588.8401
0.0 0.4 0.0
266.2774
294.6645
440.6803
514.7539
528.9861
565.1363
0.0 0.4 0.1
282.7384
294.285
434.0152
490.4984
540.3447
591.9591
0.0 0.4 0.2
306.2282
321.2498
412.4842
433.6452
578.7667
614.1041
0.0 0.4 0.3
349.7037
365.2992
366.49
376.6369
607.1173
611.6194
0.0 0.4 0.4
314.4924
333.0979
404.0546
415.8396
588.0253
615.8426
0.0 0.4 -0.5
291.7263
295.3043
429.764
476.8536
550.3977
600.062
0.0 -0.5 0.0
278.1826
342.2585
450.4563
492.3136
540.1467
584.4656
0.0 -0.5 0.1
293.6236
332.4553
443.7137
472.869
563.7627
603.4489
0.0 -0.5 0.2
324.9134
330.7247
421.9638
426.828
601.904
627.7207
0.0 -0.5 0.3
352.5839
366.7875
374.4392
385.8239
626.3708
629.6944
0.0 -0.5 0.4
328.0394
342.3755
410.9716
413.4547
610.2783
630.6596
0.0 -0.5 -0.5
302.1653
328.6373
439.4167
462.764
574.3854
611.3627
0.1 0.1 0.0
112.5229
133.6808
254.489
378.2546
412.4327
624.9313
0.1 0.1 0.1
158.8154
161.8848
300.1631
369.3881
400.8822
611.9256
0.1 0.1 0.2
216.2135
228.8903
339.4628
364.928
400.9734
576.1761
0.1 0.1 0.3
274.4543
286.8611
296.4215
310.1387
496.1177
517.0116
0.1 0.1 0.4
232.062
246.424
327.9589
351.4934
428.7659
562.8363
0.1 0.1 -0.5
174.4801
179.0571
324.5569
363.7356
393.6182
604.3605
0.1 0.2 0.0
175.4123
209.5381
354.0856
421.3669
464.9289
600.0207
0.1 0.2 0.1
198.4794
229.5953
378.8925
420.8767
448.8264
595.3323
0.1 0.2 0.2
253.3124
273.486
377.7328
404.191
464.8991
577.8259
0.1 0.2 0.3
311.979
315.2463
345.8955
348.9913
526.7147
540.5757
0.1 0.2 0.4
270.1407
286.3208
369.4481
388.9145
482.4828
569.9757
0.1 0.2 -0.5
211.2502
240.1669
385.7865
425.6217
439.3384
592.1648
0.1 0.3 0.0
241.2468
269.6902
413.8005
481.3735
520.0675
563.4292
0.1 0.3 0.1
245.6908
287.7844
421.9403
479.5367
500.7853
580.7401
0.1 0.3 0.2
273.3615
325.8819
408.8903
431.6811
532.1215
590.4483
0.1 0.3 0.3
325.5152
339.3928
382.4545
390.3483
569.301
576.708
0.1 0.3 0.4
285.6428
336.2762
398.3297
418.9081
543.1673
589.0538
0.1 0.3 -0.5
250.2758
297.0768
422.2553
469.2481
505.1216
585.4404
0.1 0.4 0.0
300.6927
303.2291
446.4956
519.6945
521.7776
562.8795
0.1 0.4 0.1
289.9447
324.2978
445.0037
485.993
543.187
586.4044
0.1 0.4 0.2
294.0374
358.5646
411.8609
452.2813
576.4528
608.6579
0.1 0.4 0.3
330.1562
344.4036
407.3947
417.2849
602.9895
607.17
0.1 0.4 0.4
300.3789
366.2098
399.8644
443.438
585.0475
610.6271
0.1 0.4 -0.5
288.6582
332.8196
440.1653
476.1455
551.4082
594.3398
0.2 0.2 0.0
218.513
242.1547
403.4067
453.5171
505.6775
577.5248
0.2 0.2 0.1
229.8005
261.5893
409.9624
463.0437
484.11
585.1148
0.2 0.2 0.2
268.7213
303.3208
394.8224
426.0877
511.8519
585.9784
0.2 0.2 0.3
325.1652
335.9567
364.0272
371.6503
556.0756
565.3219
0.2 0.2 0.4
283.1763
315.4768
385.9695
410.1519
524.8202
582.6472
0.2 0.2 -0.5
237.5739
271.6546
409.0637
462.563
481.6331
587.0769
0.2 0.3 0.0
269.342
313.754
423.8132
516.7408
528.7468
543.3151
0.2 0.3 0.1
266.1499
328.4201
439.2895
480.771
527.0628
574.8971
0.2 0.3 0.2
279.0167
358.1368
422.2181
445.3175
551.793
593.2065
0.2 0.3 0.3
322.7089
337.7176
413.8268
421.4767
581.021
586.5189
0.2 0.3 0.4
287.9298
362.4333
410.4849
440.5036
560.4879
593.7661
0.2 0.3 -0.5
266.8313
336.1293
443.3
466.2983
531.5237
582.2255
0.2 0.4 0.0
318.2609
367.5555
450.8806
502.9027
532.5296
562.6966
0.2 0.4 0.1
304.9379
379.3547
461.2388
474.1492
559.2788
571.8573
0.2 0.4 0.2
296.4145
383.9204
431.8985
483.3019
577.0188
597.0119
0.2 0.4 0.3
321.3076
333.9609
456.3299
464.0178
596.6461
599.6256
0.2 0.4 0.4
299.3023
372.5763
435.9508
480.2712
583.0748
600.0744
0.2 0.4 -0.5
300.4878
384.6671
450.2085
478.8898
563.2232
579.9441
0.3 0.3 0.0
307.1111
311.6851
449.6166
516.306
522.9676
565.5676
0.3 0.3 0.1
294.6947
332.5274
447.6865
484.6453
546.3097
586.7108
0.3 0.3 0.2
295.4649
365.3489
411.4746
457.1893
578.945
609.1571
0.3 0.3 0.3
328.9405
342.9127
414.4395
424.1869
604.5816
608.5205
0.3 0.3 0.4
300.9408
370.736
401.2206
449.173
587.2981
611.3406
0.3 0.3 -0.5
292.5515
340.9085
441.7534
476.6177
554.4826
594.5168
P	=	2999.81	V	=	91.4606	E	=	-655.14387291
0.0 0.0 0.0
0.0
0.0
0.0
371.7595
371.7595
684.4468
0.0 0.0 0.1
91.3278
91.3278
200.5356
361.1566
361.1566
665.5893
0.0 0.0 0.2
172.4178
172.4178
325.2422
325.2422
376.2104
615.1894
0.0 0.0 0.3
246.1671
246.1671
264.8128
264.8128
508.4844
535.9288
0.0 0.0 0.4
192.5834
192.5834
311.1087
311.1087
416.1465
597.1844
0.0 0.0 -0.5
114.0295
114.0295
250.808
354.2808
354.2808
654.8378
0.0 0.1 0.0
85.2572
99.5252
196.2446
384.2446
405.3835
674.5764
0.0 0.1 0.1
136.4228
147.124
264.2092
374.296
394.26
657.9262
0.0 0.1 0.2
201.9888
217.5325
340.9263
358.086
399.4032
612.8725
0.0 0.1 0.3
268.3155
283.2885
285.3507
300.4583
516.075
540.9328
0.0 0.1 0.4
219.8548
235.2167
327.8765
344.3017
433.8899
596.5911
0.0 0.1 -0.5
153.2081
166.9751
298.8032
367.8759
387.1824
648.3861
0.0 0.2 0.0
167.8944
184.9413
362.7347
413.0254
478.5907
646.8415
0.0 0.2 0.1
201.8844
208.9345
397.0117
404.4361
463.8854
638.4048
0.0 0.2 0.2
259.8463
268.4169
376.1631
419.4881
473.3093
612.3768
0.0 0.2 0.3
315.273
329.5643
337.9875
356.2999
548.0582
564.8098
0.0 0.2 0.4
274.6494
287.01
365.2036
404.015
494.5081
601.9977
0.0 0.2 -0.5
218.4539
221.1968
398.9494
414.924
455.0923
633.2825
0.0 0.3 0.0
244.5535
246.0123
442.4271
479.5411
549.8244
606.4748
0.0 0.3 0.1
257.7336
265.4498
434.9446
499.8542
523.7211
620.7487
0.0 0.3 0.2
297.9674
309.1857
410.6225
455.2148
557.1172
627.138
0.0 0.3 0.3
357.9652
361.9608
370.43
381.6184
600.2763
608.9414
0.0 0.3 0.4
313.0376
322.2213
401.2144
436.3212
569.9314
624.6827
0.0 0.3 -0.5
265.8354
275.7349
430.2017
497.9748
523.7627
624.598
0.0 0.4 0.0
280.1139
311.0659
463.1685
544.7634
561.1176
598.0216
0.0 0.4 0.1
297.3319
311.1673
456.1264
519.0489
572.1916
627.4514
0.0 0.4 0.2
323.874
337.4943
433.2835
458.3761
612.6215
650.9702
0.0 0.4 0.3
369.3697
383.5516
386.9379
395.3613
642.7691
647.6407
0.0 0.4 0.4
332.3677
349.7326
424.4327
439.577
622.3128
652.6431
0.0 0.4 -0.5
306.618
312.3653
451.6711
504.6242
582.6439
636.0969
0.0 -0.5 0.0
293.4051
360.6477
473.8052
521.5604
572.5452
620.3447
0.0 -0.5 0.1
309.5252
351.3058
466.7382
500.6227
597.3493
640.7867
0.0 -0.5 0.2
344.1245
348.1138
443.7484
451.4337
637.7066
666.4048
0.0 -0.5 0.3
372.9901
387.7806
393.7231
405.5659
664.0552
667.74
0.0 -0.5 0.4
347.3294
360.1164
434.7273
434.8291
646.5638
669.3302
0.0 -0.5 -0.5
318.3285
347.6608
462.2605
489.9072
608.4399
649.154
0.1 0.1 0.0
119.9585
139.9527
268.4022
396.6028
432.7036
665.017
0.1 0.1 0.1
168.0146
170.7253
317.2668
387.3243
420.6925
650.8005
0.1 0.1 0.2
226.7216
241.2228
355.6951
382.8519
424.666
611.6061
0.1 0.1 0.3
287.4343
300.4295
310.865
325.1655
525.5283
547.6168
0.1 0.1 0.4
243.0666
259.0512
343.6809
368.8131
453.824
597.2046
0.1 0.1 -0.5
183.0754
189.6421
343.0217
381.4844
413.1728
642.5928
0.1 0.2 0.0
186.3792
219.5111
372.7362
443.2926
488.546
638.0288
0.1 0.2 0.1
210.6666
240.6716
398.2792
443.7681
471.8474
632.697
0.1 0.2 0.2
267.2165
286.5825
396.0259
424.9726
491.6406
612.9323
0.1 0.2 0.3
327.2396
330.1818
363.045
366.6816
557.3108
572.0763
0.1 0.2 0.4
284.3249
299.8285
387.3997
409.0075
510.0748
604.2911
0.1 0.2 -0.5
223.7945
251.6582
404.9016
449.4056
462.0835
629.1347
0.1 0.3 0.0
255.3247
282.844
434.6284
508.472
548.3326
598.3922
0.1 0.3 0.1
259.9416
301.983
442.9509
505.9886
529.6915
616.0488
0.1 0.3 0.2
288.4023
341.7573
429.6239
454.8746
562.9111
625.6406
0.1 0.3 0.3
342.3447
356.4192
402.0827
410.0513
602.2186
610.1329
0.1 0.3 0.4
300.9263
352.4513
419.0891
440.971
574.4108
623.9157
0.1 0.3 -0.5
264.6231
311.6294
443.2602
495.1591
534.4297
620.8517
0.1 0.4 0.0
317.2601
318.6902
469.2656
549.8462
553.3002
595.7315
0.1 0.4 0.1
305.9492
341.2299
467.8759
514.0399
575.3443
621.4374
0.1 0.4 0.2
310.3795
376.7689
434.3767
476.5512
610.338
645.0936
0.1 0.4 0.3
347.9433
362.6634
428.6942
438.9276
638.4316
642.9275
0.1 0.4 0.4
316.8585
384.576
422.0347
466.9712
619.3018
647.0293
0.1 0.4 -0.5
304.7333
350.023
463.1543
503.2948
583.9187
629.9024
0.2 0.2 0.0
231.5891
253.8825
423.8255
478.599
532.52
613.6595
0.2 0.2 0.1
243.374
274.4592
430.2584
488.8043
510.8196
621.1662
0.2 0.2 0.2
283.4854
318.1303
414.2589
448.8667
541.2611
621.0832
0.2 0.2 0.3
341.6457
352.38
382.6273
390.5402
588.1449
598.0311
0.2 0.2 0.4
298.2176
330.6871
405.1384
432.05
554.8021
617.2576
0.2 0.2 -0.5
251.3397
284.9249
429.2527
487.5841
509.189
623.0139
0.2 0.3 0.0
284.562
329.1523
445.3071
545.9013
558.53
576.6048
0.2 0.3 0.1
281.2528
344.5937
461.4966
507.9205
557.9742
609.3208
0.2 0.3 0.2
294.3424
375.4752
445.8261
467.899
584.1348
628.4504
0.2 0.3 0.3
339.6571
355.1283
435.0762
442.8044
614.8647
620.7111
0.2 0.3 0.4
303.4109
379.9798
433.3867
462.7834
593.1447
628.8629
0.2 0.3 -0.5
281.9146
352.5723
465.6861
492.7332
562.7358
617.0208
0.2 0.4 0.0
335.4418
386.1736
474.4221
532.8285
562.8848
595.7868
0.2 0.4 0.1
321.694
398.5299
487.0404
499.9756
592.3762
605.7272
0.2 0.4 0.2
312.7466
403.6398
456.032
508.5049
611.3301
632.5158
0.2 0.4 0.3
338.5826
351.7398
480.2425
488.1618
631.838
634.9794
0.2 0.4 0.4
315.6294
392.2449
459.57
505.3129
617.5882
635.6586
0.2 0.4 -0.5
317.1336
403.9724
476.2419
504.1128
596.6695
614.3185
0.3 0.3 0.0
323.93
327.6208
472.6152
547.3777
553.3536
598.7686
0.3 0.3 0.1
310.924
349.8953
470.8938
512.5468
578.67
621.8062
0.3 0.3 0.2
311.8889
383.9002
434.2418
481.6273
613.049
645.6715
0.3 0.3 0.3
346.7008
361.1585
436.1623
446.2557
640.1945
644.4329
0.3 0.3 0.4
317.474
389.438
423.564
472.9855
621.7641
647.839
0.3 0.3 -0.5
308.8188
358.5518
465.1595
503.5748
587.2184
630.1297
P	=	4999.76	V	=	81.0935	E	=	-654.86784102
0.0 0.0 0.0
-0.0
-0.0
0.0
427.3723
427.3723
818.5404
0.0 0.0 0.1
107.2689
107.2689
233.9692
415.262
415.262
794.1855
0.0 0.0 0.2
200.437
200.437
373.8919
373.8919
441.3955
730.2069
0.0 0.0 0.3
283.9729
283.9729
304.5177
304.5177
600.0402
632.3225
0.0 0.0 0.4
222.5646
222.5646
358.156
358.156
487.5634
708.4853
0.0 0.0 -0.5
132.7755
132.7755
291.1546
407.6523
407.6523
780.8811
0.0 0.1 0.0
98.4713
113.9421
230.0759
441.8635
466.6534
806.2628
0.0 0.1 0.1
157.487
169.831
310.0201
430.3987
454.0858
784.8471
0.0 0.1 0.2
233.0803
251.3286
391.7213
412.2393
469.24
727.6252
0.0 0.1 0.3
308.6824
326.2949
327.568
345.3915
609.139
638.4541
0.0 0.1 0.4
252.7932
270.8411
377.1137
396.747
509.0163
707.9163
0.0 0.1 -0.5
176.3806
192.2743
349.1793
423.2409
446.2785
773.0649
0.0 0.2 0.0
193.236
212.3234
426.2437
475.6753
553.7777
771.6803
0.0 0.2 0.1
232.8354
239.9335
465.5421
466.3749
537.3793
760.6185
0.0 0.2 0.2
298.2337
309.8165
432.2646
485.1248
556.7077
726.7059
0.0 0.2 0.3
361.876
377.881
390.1116
410.8092
646.4627
666.4666
0.0 0.2 0.4
314.6329
330.5117
419.8502
467.5628
581.0289
713.8182
0.0 0.2 -0.5
251.4568
253.5245
459.3069
486.379
527.9487
754.1472
0.0 0.3 0.0
280.58
284.0379
510.9766
565.1025
642.4706
721.0825
0.0 0.3 0.1
297.2698
306.0285
501.9614
585.7143
615.8681
736.7103
0.0 0.3 0.2
345.0433
355.7081
472.9612
530.6113
656.5716
742.614
0.0 0.3 0.3
411.745
420.1363
425.7556
442.7254
707.9242
718.3702
0.0 0.3 0.4
362.0365
370.1211
462.2145
508.8092
671.0746
739.1583
0.0 0.3 -0.5
306.7832
317.283
496.4794
581.4707
617.8972
740.839
0.0 0.4 0.0
326.1709
356.6553
536.5264
644.2913
663.8266
706.9764
0.0 0.4 0.1
345.5447
359.3931
528.0889
610.531
677.2707
743.6747
0.0 0.4 0.2
376.7174
390.8733
500.9633
536.9072
723.834
771.7934
0.0 0.4 0.3
430.6915
443.4323
450.9547
456.6296
760.0665
766.0875
0.0 0.4 0.4
386.4766
404.3105
490.8939
514.9294
734.9055
773.3989
0.0 0.4 -0.5
355.6433
361.6486
522.9628
593.5552
688.775
753.9427
0.0 -0.5 0.0
344.4718
414.3037
549.9047
613.6743
679.9182
739.5292
0.0 -0.5 0.1
362.5747
407.1331
541.6416
588.2231
707.5768
763.7914
0.0 -0.5 0.2
402.2083
405.8613
514.7591
528.67
754.6248
793.3925
0.0 -0.5 0.3
436.1626
452.9497
457.4488
470.562
787.6933
792.6142
0.0 -0.5 0.4
405.9761
418.9268
504.7236
509.2924
765.0895
796.3046
0.0 -0.5 -0.5
372.1072
404.2974
536.5899
575.6319
719.8157
773.3469
0.1 0.1 0.0
138.3683
160.4375
314.7848
456.4908
498.8142
794.3596
0.1 0.1 0.1
193.3615
196.7098
372.295
445.8239
485.3039
776.0959
0.1 0.1 0.2
260.7863
278.2051
408.6515
441.3651
499.2618
726.1486
0.1 0.1 0.3
330.156
344.7262
357.9159
374.0488
620.2638
646.4069
0.1 0.1 0.4
278.854
297.9331
395.1781
425.4992
532.8324
708.6178
0.1 0.1 -0.5
210.126
218.0353
401.2662
439.5037
477.0243
765.9485
0.1 0.2 0.0
214.3553
252.3113
434.0883
515.9787
565.571
760.7043
0.1 0.2 0.1
242.6564
276.6119
460.6431
519.8837
546.7949
753.4153
0.1 0.2 0.2
307.8988
328.9392
455.2792
492.2613
578.8676
727.1139
0.1 0.2 0.3
375.8825
378.5647
418.4814
423.5153
657.4122
675.0495
0.1 0.2 0.4
326.8834
343.523
445.6912
474.0836
599.9021
716.2669
0.1 0.2 -0.5
257.3612
288.7457
466.3957
527.6615
536.3388
748.778
0.1 0.3 0.0
292.9477
326.2682
502.9224
598.1521
641.3848
711.0951
0.1 0.3 0.1
299.3439
348.1659
511.1406
591.6701
625.3988
730.6811
0.1 0.3 0.2
332.971
393.2056
496.2182
529.6536
664.4276
740.6834
0.1 0.3 0.3
395.3027
410.4872
465.5055
473.8682
710.6814
720.1132
0.1 0.3 0.4
346.993
404.8452
485.46
512.5411
677.3078
738.1707
0.1 0.3 -0.5
304.8614
358.7781
511.2685
578.851
631.354
735.9727
0.1 0.4 0.0
364.0285
370.0188
543.8265
649.3614
654.3427
704.6098
0.1 0.4 0.1
353.1004
395.7402
541.9499
604.1777
681.3503
736.1646
0.1 0.4 0.2
359.7149
435.9618
506.021
554.993
721.77
764.4306
0.1 0.4 0.3
403.6547
420.1156
498.0087
509.2686
755.0981
760.5417
0.1 0.4 0.4
367.0752
444.1917
492.6925
543.2429
731.9108
766.4164
0.1 0.4 -0.5
352.2183
405.5703
537.1865
590.7461
690.9445
746.1623
0.2 0.2 0.0
265.8599
292.5151
490.6371
561.9307
620.6196
730.1903
0.2 0.2 0.1
280.3254
316.0833
496.163
572.7857
598.9585
737.974
0.2 0.2 0.2
327.1328
365.86
477.1548
522.1634
638.013
735.7246
0.2 0.2 0.3
393.7961
405.0286
442.4104
451.4493
693.6767
705.5274
0.2 0.2 0.4
343.5609
379.7056
467.1368
502.6353
653.3093
730.6124
0.2 0.2 -0.5
289.4353
327.6336
494.734
568.6275
600.1885
739.6749
0.2 0.3 0.0
326.4903
380.0406
516.0088
641.1012
657.7135
683.9201
0.2 0.3 0.1
323.8697
397.6072
533.4768
595.3837
660.549
721.2301
0.2 0.3 0.2
339.9337
431.9286
521.0761
541.0081
690.9784
743.6267
0.2 0.3 0.3
392.7404
409.9706
504.18
512.0992
726.4606
733.2746
0.2 0.3 0.4
350.1307
436.8096
506.8085
534.9119
700.9218
743.8259
0.2 0.3 -0.5
324.953
406.2901
537.9288
577.8774
666.123
730.1702
0.2 0.4 0.0
385.6056
447.6998
552.0292
629.1983
662.2403
705.6087
0.2 0.4 0.1
371.1208
461.4347
568.7768
584.7358
701.2574
716.6967
0.2 0.4 0.2
361.999
466.6594
534.1044
589.9935
724.5224
748.4249
0.2 0.4 0.3
392.5286
407.446
558.4114
566.9318
747.7676
751.268
0.2 0.4 0.4
365.3189
454.6093
536.5458
586.484
731.3936
752.0438
0.2 0.4 -0.5
366.444
467.1258
559.3553
585.8883
706.9772
726.3713
0.3 0.3 0.0
371.8008
380.5318
547.9485
646.9387
653.5794
708.8334
0.3 0.3 0.1
358.8995
405.9802
545.8958
602.2758
685.2302
736.8541
0.3 0.3 0.2
361.5267
444.2464
506.6304
560.6434
725.1451
765.2784
0.3 0.3 0.3
402.284
418.498
506.9288
518.0404
757.4004
762.5422
0.3 0.3 0.4
367.8826
449.9879
494.9265
550.1756
735.0251
767.5408
0.3 0.3 -0.5
357.0355
415.6401
540.2759
590.5638
694.8867
746.6318

weight
   0.0000000   0.0000000   0.0000000   0.0020000   
   0.0000000   0.0000000   0.1000000   0.0040000   
   0.0000000   0.0000000   0.2000000   0.0040000   
   0.0000000   0.0000000   0.3000000   0.0040000   
   0.0000000   0.0000000   0.4000000   0.0040000   
   0.0000000   0.0000000  -0.5000000   0.0020000   
   0.0000000   0.1000000   0.0000000   0.0120000   
   0.0000000   0.1000000   0.1000000   0.0240000   
   0.0000000   0.1000000   0.2000000   0.0240000   
   0.0000000   0.1000000   0.3000000   0.0240000   
   0.0000000   0.1000000   0.4000000   0.0240000   
   0.0000000   0.1000000  -0.5000000   0.0120000   
   0.0000000   0.2000000   0.0000000   0.0120000   
   0.0000000   0.2000000   0.1000000   0.0240000   
   0.0000000   0.2000000   0.2000000   0.0240000   
   0.0000000   0.2000000   0.3000000   0.0240000   
   0.0000000   0.2000000   0.4000000   0.0240000   
   0.0000000   0.2000000  -0.5000000   0.0120000   
   0.0000000   0.3000000   0.0000000   0.0120000   
   0.0000000   0.3000000   0.1000000   0.0240000   
   0.0000000   0.3000000   0.2000000   0.0240000   
   0.0000000   0.3000000   0.3000000   0.0240000   
   0.0000000   0.3000000   0.4000000   0.0240000   
   0.0000000   0.3000000  -0.5000000   0.0120000   
   0.0000000   0.4000000   0.0000000   0.0120000   
   0.0000000   0.4000000   0.1000000   0.0240000   
   0.0000000   0.4000000   0.2000000   0.0240000   
   0.0000000   0.4000000   0.3000000   0.0240000   
   0.0000000   0.4000000   0.4000000   0.0240000   
   0.0000000   0.4000000  -0.5000000   0.0120000   
   0.0000000  -0.5000000   0.0000000   0.0060000   
   0.0000000  -0.5000000   0.1000000   0.0120000   
   0.0000000  -0.5000000   0.2000000   0.0120000   
   0.0000000  -0.5000000   0.3000000   0.0120000   
   0.0000000  -0.5000000   0.4000000   0.0120000   
   0.0000000  -0.5000000  -0.5000000   0.0060000   
   0.1000000   0.1000000   0.0000000   0.0120000   
   0.1000000   0.1000000   0.1000000   0.0240000   
   0.1000000   0.1000000   0.2000000   0.0240000   
   0.1000000   0.1000000   0.3000000   0.0240000   
   0.1000000   0.1000000   0.4000000   0.0240000   
   0.1000000   0.1000000  -0.5000000   0.0120000   
   0.1000000   0.2000000   0.0000000   0.0240000   
   0.1000000   0.2000000   0.1000000   0.0480000   
   0.1000000   0.2000000   0.2000000   0.0480000   
   0.1000000   0.2000000   0.3000000   0.0480000   
   0.1000000   0.2000000   0.4000000   0.0480000   
   0.1000000   0.2000000  -0.5000000   0.0240000   
   0.1000000   0.3000000   0.0000000   0.0240000   
   0.1000000   0.3000000   0.1000000   0.0480000   
   0.1000000   0.3000000   0.2000000   0.0480000   
   0.1000000   0.3000000   0.3000000   0.0480000   
   0.1000000   0.3000000   0.4000000   0.0480000   
   0.1000000   0.3000000  -0.5000000   0.0240000   
   0.1000000   0.4000000   0.0000000   0.0240000   
   0.1000000   0.4000000   0.1000000   0.0480000   
   0.1000000   0.4000000   0.2000000   0.0480000   
   0.1000000   0.4000000   0.3000000   0.0480000   
   0.1000000   0.4000000   0.4000000   0.0480000   
   0.1000000   0.4000000  -0.5000000   0.0240000   
   0.2000000   0.2000000   0.0000000   0.0120000   
   0.2000000   0.2000000   0.1000000   0.0240000   
   0.2000000   0.2000000   0.2000000   0.0240000   
   0.2000000   0.2000000   0.3000000   0.0240000   
   0.2000000   0.2000000   0.4000000   0.0240000   
   0.2000000   0.2000000  -0.5000000   0.0120000   
   0.2000000   0.3000000   0.0000000   0.0240000   
   0.2000000   0.3000000   0.1000000   0.0480000   
   0.2000000   0.3000000   0.2000000   0.0480000   
   0.2000000   0.3000000   0.3000000   0.0480000   
   0.2000000   0.3000000   0.4000000   0.0480000   
   0.2000000   0.3000000  -0.5000000   0.0240000   
   0.2000000   0.4000000   0.0000000   0.0120000   
   0.2000000   0.4000000   0.1000000   0.0240000   
   0.2000000   0.4000000   0.2000000   0.0240000   
   0.2000000   0.4000000   0.3000000   0.0240000   
   0.2000000   0.4000000   0.4000000   0.0240000   
   0.2000000   0.4000000  -0.5000000   0.0120000   
   0.3000000   0.3000000   0.0000000   0.0120000   
   0.3000000   0.3000000   0.1000000   0.0240000   
   0.3000000   0.3000000   0.2000000   0.0240000   
   0.3000000   0.3000000   0.3000000   0.0240000   
   0.3000000   0.3000000   0.4000000   0.0240000   
   0.3000000   0.3000000  -0.5000000   0.0120000   