Number of volumes (nv), q-vectors (nq), normal mode (np), formula units(nm)
10 84 6 1
P = 42.4900	V = 138.4189	E = -655.43018342000000	S_el = 0.00001689341000
0.0000000 0.0000000 0.0000000
0.0000
0.0000
0.0000
209.1830
209.1830
302.0044
0.0000000 0.0000000 0.1000000
51.0781
51.0781
102.2177
203.0187
203.0187
299.6002
0.0000000 0.0000000 0.2000000
96.0764
96.0764
182.4177
182.4177
188.8737
289.1169
0.0000000 0.0000000 0.3000000
137.0265
137.0265
148.2824
148.2824
249.6425
261.9203
0.0000000 0.0000000 0.4000000
108.1002
108.1002
173.7186
173.7186
209.2381
283.4599
0.0000000 0.0000000 -0.5000000
64.6779
64.6779
129.3281
198.6916
198.6916
297.7185
0.0000000 0.1000000 0.0000000
49.6587
57.8587
102.1120
215.3430
225.0899
298.9804
0.0000000 0.1000000 0.1000000
77.9681
82.1203
135.4463
209.8503
218.8613
297.2313
0.0000000 0.1000000 0.2000000
113.9308
121.0592
191.3602
198.7886
201.2071
288.6350
0.0000000 0.1000000 0.3000000
150.4314
157.5340
160.5817
167.6907
253.8047
264.7148
0.0000000 0.1000000 0.4000000
124.5074
131.6766
183.5246
190.9268
218.3515
283.7465
0.0000000 0.1000000 -0.5000000
87.9048
93.8137
153.7741
205.9791
214.6031
295.7714
0.0000000 0.2000000 0.0000000
96.9812
106.1693
185.8832
228.7001
257.3263
290.4655
0.0000000 0.2000000 0.1000000
113.2864
119.3284
202.9747
224.5674
248.7327
292.2474
0.0000000 0.2000000 0.2000000
146.8689
148.2620
210.3036
226.3854
239.1506
291.1106
0.0000000 0.2000000 0.3000000
177.5174
184.8523
185.6531
194.8533
271.3856
278.0671
0.0000000 0.2000000 0.4000000
156.0655
158.5344
204.1495
218.0814
249.5480
288.8828
0.0000000 0.2000000 -0.5000000
122.3089
126.6286
212.6075
221.5738
243.5176
292.6712
0.0000000 0.3000000 0.0000000
137.0907
140.1296
239.2110
241.0567
278.5362
281.8933
0.0000000 0.3000000 0.1000000
143.5770
148.9256
237.2331
252.3136
261.0663
294.3297
0.0000000 0.3000000 0.2000000
161.9878
173.2506
226.2517
234.4681
277.2661
301.6655
0.0000000 0.3000000 0.3000000
192.4973
199.6545
202.3996
206.3860
295.7020
298.8026
0.0000000 0.3000000 0.4000000
169.9239
180.9769
221.4162
225.6799
283.6452
302.0369
0.0000000 0.3000000 -0.5000000
147.2439
155.1372
234.9801
253.4019
260.0462
297.2632
0.0000000 0.4000000 0.0000000
152.3269
172.8984
246.4312
264.5903
264.7238
290.0140
0.0000000 0.4000000 0.1000000
162.1245
168.7921
243.4069
252.8018
276.9850
298.4804
0.0000000 0.4000000 0.2000000
171.0136
184.9077
229.4993
233.1779
296.7500
308.3553
0.0000000 0.4000000 0.3000000
191.2253
199.3817
209.6737
215.9515
308.6031
310.0009
0.0000000 0.4000000 0.4000000
175.0518
192.2148
220.9770
229.1784
301.2571
309.8143
0.0000000 0.4000000 -0.5000000
167.5814
168.1499
241.3307
246.9271
282.8602
301.8719
0.0000000 -0.5000000 0.0000000
154.4882
195.2961
248.2421
253.4784
271.5615
285.6611
0.0000000 -0.5000000 0.1000000
163.9616
184.0715
244.4584
244.8722
284.5124
294.7905
0.0000000 -0.5000000 0.2000000
174.7740
186.4247
223.5066
234.7074
302.1540
306.9242
0.0000000 -0.5000000 0.3000000
188.2458
195.6572
210.9339
217.2019
310.3234
310.8628
0.0000000 -0.5000000 0.4000000
176.1766
193.6891
215.8637
230.3507
305.5740
308.9983
0.0000000 -0.5000000 -0.5000000
169.5809
179.7420
239.9177
242.2422
290.1875
298.8025
0.1000000 0.1000000 0.0000000
69.6995
80.8645
139.1077
221.0879
237.6024
296.0460
0.1000000 0.1000000 0.1000000
94.5784
97.2084
163.0994
216.1614
230.9665
295.1420
0.1000000 0.1000000 0.2000000
128.3806
133.9180
199.4493
210.7582
214.3483
288.7643
0.1000000 0.1000000 0.3000000
161.7555
168.7231
172.8322
180.4073
259.0562
268.4824
0.1000000 0.1000000 0.4000000
138.0587
144.5764
192.3446
202.9304
228.7236
284.7406
0.1000000 0.1000000 -0.5000000
104.4905
107.0592
176.7217
212.6768
226.5529
294.1986
0.1000000 0.2000000 0.0000000
107.5900
124.9794
194.9185
238.1979
261.0890
287.7590
0.1000000 0.2000000 0.1000000
119.0517
136.6145
211.4526
234.8356
250.9963
291.0788
0.1000000 0.2000000 0.2000000
148.2638
162.0767
220.5517
227.3618
247.0753
292.0935
0.1000000 0.2000000 0.3000000
181.9295
186.1419
198.8654
200.6679
275.8218
281.6255
0.1000000 0.2000000 0.4000000
158.1386
170.0199
215.2511
219.0430
256.3881
290.5359
0.1000000 0.2000000 -0.5000000
126.1590
143.1936
219.9594
232.9119
245.2601
292.1167
0.1000000 0.3000000 0.0000000
145.5150
158.0498
232.3200
256.9216
276.3144
279.7849
0.1000000 0.3000000 0.1000000
146.0971
168.4249
241.1516
254.8796
261.7644
292.6629
0.1000000 0.3000000 0.2000000
159.2498
190.6886
227.7397
240.9146
277.9336
300.4917
0.1000000 0.3000000 0.3000000
186.0529
194.5869
217.4479
223.3281
295.4777
298.3639
0.1000000 0.3000000 0.4000000
165.9639
197.3305
219.8484
236.5830
283.9772
301.0591
0.1000000 0.3000000 -0.5000000
148.1333
174.1744
241.5668
250.8247
263.5017
295.7130
0.1000000 0.4000000 0.0000000
173.1033
177.1725
248.9631
262.4405
267.9277
288.5766
0.1000000 0.4000000 0.1000000
168.1162
184.9343
244.7892
255.8211
276.9018
296.1341
0.1000000 0.4000000 0.2000000
167.6721
205.0330
220.8372
249.4555
294.5152
305.6884
0.1000000 0.4000000 0.3000000
184.7687
192.1431
228.0973
233.8452
306.1807
307.5366
0.1000000 0.4000000 0.4000000
170.8457
209.8170
214.6282
245.7724
298.9163
307.1888
0.1000000 0.4000000 -0.5000000
166.4761
189.9728
238.7783
255.0853
281.6860
299.3424
0.2000000 0.2000000 0.0000000
132.5029
143.0352
225.1568
247.0549
276.5299
280.3306
0.2000000 0.2000000 0.1000000
136.9953
154.1762
235.0249
247.5360
259.4520
291.9268
0.2000000 0.2000000 0.2000000
156.5584
178.1957
226.8051
235.2364
269.7258
298.2527
0.2000000 0.2000000 0.3000000
186.9111
195.0057
207.4446
213.1283
290.2416
293.9046
0.2000000 0.2000000 0.4000000
164.6975
185.6726
220.0446
228.7848
276.6542
298.2651
0.2000000 0.2000000 -0.5000000
140.9515
160.3680
235.8118
250.1559
254.4466
294.5993
0.2000000 0.3000000 0.0000000
161.5288
181.9354
236.6965
269.5873
271.4518
280.1563
0.2000000 0.3000000 0.1000000
157.6743
190.5094
248.2407
251.5464
272.5061
291.5790
0.2000000 0.3000000 0.2000000
162.6543
208.9153
224.7130
253.1561
284.1856
300.7972
0.2000000 0.3000000 0.3000000
183.6851
191.5775
233.8276
239.2332
298.6891
300.8347
0.2000000 0.3000000 0.4000000
167.3087
209.8980
221.5106
250.1997
289.2291
301.9102
0.2000000 0.3000000 -0.5000000
157.3814
195.4520
243.6425
252.8907
273.8327
294.9474
0.2000000 0.4000000 0.0000000
187.5806
208.0538
246.8447
256.5837
276.8098
287.8334
0.2000000 0.4000000 0.1000000
177.1604
215.4847
239.7580
260.1531
284.4893
290.0058
0.2000000 0.4000000 0.2000000
170.3955
211.7917
233.8707
268.1686
291.4643
299.8743
0.2000000 0.4000000 0.3000000
181.0814
186.8371
252.4335
257.1018
301.5993
302.7166
0.2000000 0.4000000 0.4000000
171.7215
204.1457
239.3483
266.0968
295.0894
301.6603
0.2000000 0.4000000 -0.5000000
173.6642
219.4332
232.7214
264.9932
285.3108
293.0362
0.3000000 0.3000000 0.0000000
177.2289
180.6978
250.0004
260.7427
269.2403
288.5702
0.3000000 0.3000000 0.1000000
170.5171
189.0107
243.7675
256.9701
277.9782
295.7065
0.3000000 0.3000000 0.2000000
168.2753
208.6057
219.3950
251.9318
294.9967
305.3022
0.3000000 0.3000000 0.3000000
183.9659
191.0722
231.2821
236.8883
306.2016
307.4463
0.3000000 0.3000000 0.4000000
170.9813
210.0386
216.4590
248.4267
299.2546
306.8710
0.3000000 0.3000000 -0.5000000
168.3498
193.9813
237.3726
256.8756
282.5740
298.8800
P = 239.5200	V = 130.1411	E = -655.42757843000000	S_el = 0.00001521612333
0.0000000 0.0000000 0.0000000
0.0000
0.0000
0.0000
232.8102
232.8102
352.4616
0.0000000 0.0000000 0.1000000
59.9314
59.9314
114.8908
226.1491
226.1491
347.8530
0.0000000 0.0000000 0.2000000
110.8085
110.8085
203.8233
203.8233
213.3203
332.1501
0.0000000 0.0000000 0.3000000
155.0935
155.0935
167.0522
167.0522
283.7099
298.1503
0.0000000 0.0000000 0.4000000
123.8366
123.8366
194.5074
194.5074
236.5032
324.7823
0.0000000 0.0000000 -0.5000000
75.4360
75.4360
145.2507
221.5096
221.5096
344.7180
0.0000000 0.1000000 0.0000000
54.8233
64.9070
115.5051
239.7931
251.1042
348.6497
0.0000000 0.1000000 0.1000000
88.7234
92.0849
153.2808
233.7929
244.2948
344.8717
0.0000000 0.1000000 0.2000000
129.5717
137.0047
213.6155
222.4359
227.4932
331.5208
0.0000000 0.1000000 0.3000000
169.3808
177.3110
180.2497
188.2925
288.5731
301.4323
0.0000000 0.1000000 0.4000000
141.1195
148.7788
205.1764
213.7613
247.1333
325.0777
0.0000000 0.1000000 -0.5000000
100.1069
105.6115
173.6837
229.6071
239.6734
342.2625
0.0000000 0.2000000 0.0000000
107.1147
119.1769
210.8384
255.1836
288.7632
337.8823
0.0000000 0.2000000 0.1000000
125.7885
134.0430
229.9857
250.5917
279.4521
338.0726
0.0000000 0.2000000 0.2000000
164.7950
165.9196
234.6237
254.2895
271.0894
333.8224
0.0000000 0.2000000 0.3000000
198.6209
207.0475
207.8205
218.5845
308.7184
316.7145
0.0000000 0.2000000 0.4000000
174.9179
177.4961
227.8899
244.9474
282.9736
330.5864
0.0000000 0.2000000 -0.5000000
136.0564
142.1668
241.5907
246.4147
273.6996
337.6939
0.0000000 0.3000000 0.0000000
153.2297
155.9653
268.9418
273.6525
318.5717
323.1619
0.0000000 0.3000000 0.1000000
159.4898
166.9963
265.5269
286.8325
297.7176
337.4821
0.0000000 0.3000000 0.2000000
181.1804
193.7026
252.9238
265.3868
315.4313
345.3057
0.0000000 0.3000000 0.3000000
216.5047
223.1050
228.0474
230.3825
337.1356
340.9444
0.0000000 0.3000000 0.4000000
190.3048
202.1908
247.5052
255.1317
322.7456
345.4480
0.0000000 0.3000000 -0.5000000
163.8397
173.7073
262.9373
287.8717
296.0912
340.7427
0.0000000 0.4000000 0.0000000
171.8284
192.0126
277.3020
303.3575
304.6753
332.1177
0.0000000 0.4000000 0.1000000
182.2090
188.4266
273.7089
289.1340
317.2411
342.7977
0.0000000 0.4000000 0.2000000
192.2677
207.0241
260.1489
262.4949
339.6915
354.4053
0.0000000 0.4000000 0.3000000
216.0750
225.3423
235.0039
241.9415
353.9493
355.7643
0.0000000 0.4000000 0.4000000
197.0660
215.0820
251.6449
256.4340
344.9485
355.9853
0.0000000 0.4000000 -0.5000000
187.6792
188.4525
271.2900
281.9595
323.7411
346.8352
0.0000000 -0.5000000 0.0000000
174.9990
218.0082
280.3233
289.6727
312.8314
330.9622
0.0000000 -0.5000000 0.1000000
184.9514
206.9091
276.2880
279.2175
327.1953
341.1461
0.0000000 -0.5000000 0.2000000
197.9639
209.3596
254.7836
264.2801
347.7688
354.9321
0.0000000 -0.5000000 0.3000000
213.7825
222.2245
237.0661
244.2266
358.1459
359.0008
0.0000000 -0.5000000 0.4000000
199.7477
217.3951
245.2376
259.9803
351.9289
357.2316
0.0000000 -0.5000000 -0.5000000
190.8988
202.6180
272.6343
274.5458
333.6142
345.6539
0.1000000 0.1000000 0.0000000
76.9527
90.7087
157.4868
246.3829
265.6020
344.9459
0.1000000 0.1000000 0.1000000
105.5367
109.5349
184.6924
240.9440
258.3106
342.1842
0.1000000 0.1000000 0.2000000
144.9633
150.5310
222.5549
236.0351
242.6629
331.5491
0.1000000 0.1000000 0.3000000
181.5385
189.1482
193.8946
202.3439
294.6267
305.7804
0.1000000 0.1000000 0.4000000
155.5670
162.4572
214.8696
227.3419
259.1044
326.1402
0.1000000 0.1000000 -0.5000000
117.6698
119.9190
199.8971
237.1541
253.4809
340.1990
0.1000000 0.2000000 0.0000000
118.8215
140.1305
220.6626
266.8707
293.3701
334.4519
0.1000000 0.2000000 0.1000000
132.0585
153.1623
238.7494
263.4125
282.5554
336.3011
0.1000000 0.2000000 0.2000000
165.6358
181.4909
246.0924
255.7275
280.4450
334.8180
0.1000000 0.2000000 0.3000000
203.6515
207.9548
223.2077
224.6739
313.8970
320.8676
0.1000000 0.2000000 0.4000000
176.7967
190.1875
240.4044
246.2969
291.0046
332.4220
0.1000000 0.2000000 -0.5000000
140.1762
160.4371
247.3527
262.1021
276.2158
336.6843
0.1000000 0.3000000 0.0000000
160.9421
177.4186
262.0342
291.2608
316.5501
320.2013
0.1000000 0.3000000 0.1000000
162.1921
188.6700
270.2409
290.0860
298.4660
335.5814
0.1000000 0.3000000 0.2000000
177.8095
213.1243
257.1816
270.3367
316.6675
344.1548
0.1000000 0.3000000 0.3000000
208.7426
218.2928
243.8501
250.1600
337.1697
340.7166
0.1000000 0.3000000 0.4000000
185.5303
220.3528
248.3694
265.2143
323.5202
344.5505
0.1000000 0.3000000 -0.5000000
164.6848
194.9079
270.6567
284.8207
300.4678
339.0367
0.1000000 0.4000000 0.0000000
194.6386
196.9347
280.7241
301.9858
306.4720
330.5112
0.1000000 0.4000000 0.1000000
187.5988
207.6068
277.3386
290.2725
317.5283
340.0491
0.1000000 0.4000000 0.2000000
187.9439
229.7751
250.6393
281.0653
337.3520
351.3782
0.1000000 0.4000000 0.3000000
208.0870
216.5627
256.4465
262.9175
351.2552
353.0071
0.1000000 0.4000000 0.4000000
191.7219
234.9961
243.4734
276.7628
342.4328
353.0187
0.1000000 0.4000000 -0.5000000
185.9770
213.1674
271.1739
288.3138
322.8023
343.9032
0.2000000 0.2000000 0.0000000
146.4787
160.5636
254.4033
278.6455
312.3936
324.9700
0.2000000 0.2000000 0.1000000
152.0440
172.7178
263.3037
280.8406
294.8056
335.4018
0.2000000 0.2000000 0.2000000
174.8262
199.2349
254.1675
265.0861
306.7284
341.4671
0.2000000 0.2000000 0.3000000
209.5453
218.3181
232.6986
238.6549
330.7276
335.1937
0.2000000 0.2000000 0.4000000
184.1097
207.4390
247.1793
257.0581
314.6120
341.1180
0.2000000 0.2000000 -0.5000000
156.6614
179.4682
263.6234
283.6732
289.3888
338.1181
0.2000000 0.3000000 0.0000000
178.7640
204.2043
267.3047
308.5310
312.5431
317.4826
0.2000000 0.3000000 0.1000000
175.1288
213.4842
279.0769
287.0163
311.1340
334.2109
0.2000000 0.3000000 0.2000000
181.6145
233.3605
255.3431
283.7091
324.8121
344.9536
0.2000000 0.3000000 0.3000000
206.2527
215.3000
262.4451
268.3249
341.6193
344.2772
0.2000000 0.3000000 0.4000000
187.0593
234.9390
250.7627
280.5014
330.4560
346.0725
0.2000000 0.3000000 -0.5000000
175.0566
218.7997
277.5074
283.7939
313.0351
338.2266
0.2000000 0.4000000 0.0000000
208.1908
234.1596
279.8785
294.0907
316.3275
329.5662
0.2000000 0.4000000 0.1000000
197.4725
242.1242
273.7060
294.0235
326.1354
332.8468
0.2000000 0.4000000 0.2000000
190.7667
239.4517
264.1551
302.0593
334.7334
344.8447
0.2000000 0.4000000 0.3000000
203.7400
210.5014
284.5286
289.7579
346.3829
347.7981
0.2000000 0.4000000 0.4000000
192.4637
230.8715
269.8978
299.8689
338.7471
346.8680
0.2000000 0.4000000 -0.5000000
193.8761
246.2082
265.8292
298.8066
327.4477
336.5964
0.3000000 0.3000000 0.0000000
199.3461
200.9032
282.1139
299.4999
308.3063
330.8539
0.3000000 0.3000000 0.1000000
190.3357
212.2891
276.8510
291.0010
318.9231
339.7461
0.3000000 0.3000000 0.2000000
188.6755
233.8110
249.2174
283.9905
338.1269
351.1201
0.3000000 0.3000000 0.3000000
207.2223
215.4092
260.1980
266.5266
351.4998
353.1197
0.3000000 0.3000000 0.4000000
191.9251
236.0739
244.9193
279.9178
343.0467
352.8482
0.3000000 0.3000000 -0.5000000
188.1445
217.7699
269.9038
290.1538
324.0225
343.5470
P = 537.3600	V = 121.3918	E = -655.41009316000000	S_el = 0.00001351560667
0.0000000 0.0000000 0.0000000
0.0000
0.0000
0.0000
258.5921
258.5921
411.1292
0.0000000 0.0000000 0.1000000
66.8080
66.8080
130.0070
251.2521
251.2521
403.9336
0.0000000 0.0000000 0.2000000
123.7449
123.7449
226.7175
226.7175
242.0453
382.0576
0.0000000 0.0000000 0.3000000
173.1146
173.1146
186.2174
186.2174
323.2905
340.1649
0.0000000 0.0000000 0.4000000
138.1707
138.1707
216.5849
216.5849
268.3905
372.6922
0.0000000 0.0000000 -0.5000000
83.9801
83.9801
164.1447
246.2068
246.2068
399.3304
0.0000000 0.1000000 0.0000000
60.4048
71.7912
130.1584
266.5793
279.7188
406.3108
0.0000000 0.1000000 0.1000000
98.4517
102.4876
173.2010
259.8955
272.1254
400.1375
0.0000000 0.1000000 0.2000000
144.2438
152.7946
237.5600
247.9334
257.9307
381.1150
0.0000000 0.1000000 0.3000000
188.7028
197.8130
200.6488
209.9126
328.7398
343.8153
0.0000000 0.1000000 0.4000000
157.0475
165.8380
228.3318
238.3119
280.4065
372.8410
0.0000000 0.1000000 -0.5000000
111.0832
117.5097
196.2425
255.3027
267.0383
396.1722
0.0000000 0.2000000 0.0000000
118.2744
132.0694
238.2946
284.4029
323.7601
392.7174
0.0000000 0.2000000 0.1000000
139.7145
148.6580
260.0847
279.0767
313.4664
391.0920
0.0000000 0.2000000 0.2000000
183.2338
185.0019
261.0920
284.9766
307.1971
382.9519
0.0000000 0.2000000 0.3000000
220.8997
230.5860
232.0554
244.4655
351.2872
360.8477
0.0000000 0.2000000 0.4000000
194.2764
198.1073
253.6164
274.4615
320.8609
378.4553
0.0000000 0.2000000 -0.5000000
151.2873
157.6414
272.4172
275.1573
307.0602
389.7448
0.0000000 0.3000000 0.0000000
170.5305
172.7084
301.3510
310.3741
361.7129
372.5648
0.0000000 0.3000000 0.1000000
177.3482
185.6565
296.8496
325.4981
338.6787
387.3561
0.0000000 0.3000000 0.2000000
202.5241
215.4114
282.2311
300.1247
358.5696
395.2734
0.0000000 0.3000000 0.3000000
243.4597
248.1913
255.5091
257.5194
384.1782
388.8565
0.0000000 0.3000000 0.4000000
212.9184
224.8131
276.0824
288.2006
366.9898
395.0426
0.0000000 0.3000000 -0.5000000
182.4091
193.0375
293.8515
326.4253
336.6966
390.8268
0.0000000 0.4000000 0.0000000
191.9871
213.9367
311.6226
346.6782
350.6181
379.6731
0.0000000 0.4000000 0.1000000
203.4320
210.7175
307.3853
330.6561
362.6613
393.3952
0.0000000 0.4000000 0.2000000
216.0821
230.9730
293.1095
296.9887
388.4326
407.1334
0.0000000 0.4000000 0.3000000
244.0175
255.0993
262.2067
270.3663
405.5984
407.9517
0.0000000 0.4000000 0.4000000
221.6874
239.9019
284.9819
288.0970
394.5806
408.8060
0.0000000 0.4000000 -0.5000000
209.4903
210.9857
304.5644
322.0533
369.9425
398.2588
0.0000000 -0.5000000 0.0000000
196.5467
244.3172
316.0526
331.3199
359.1533
382.3434
0.0000000 -0.5000000 0.1000000
207.4402
233.1686
311.5487
318.9338
375.4549
394.1395
0.0000000 -0.5000000 0.2000000
224.3176
234.4188
290.5705
297.1679
399.6810
410.0911
0.0000000 -0.5000000 0.3000000
242.7111
252.3928
265.7265
273.8928
412.8040
414.1001
0.0000000 -0.5000000 0.4000000
226.4486
243.3194
279.6576
291.9994
404.7404
412.6129
0.0000000 -0.5000000 -0.5000000
213.9026
228.8580
308.2618
312.5783
382.8127
399.3413
0.1000000 0.1000000 0.0000000
84.8429
100.4230
177.6138
274.1901
296.5601
401.6332
0.1000000 0.1000000 0.1000000
117.3534
121.4469
208.5984
268.0658
288.3940
396.6784
0.1000000 0.1000000 0.2000000
161.1704
167.8624
247.5378
263.5017
275.0334
380.9154
0.1000000 0.1000000 0.3000000
202.0308
210.6172
216.1895
225.7584
335.5027
348.6507
0.1000000 0.1000000 0.4000000
172.9247
181.0867
239.1018
253.8129
293.8902
373.8535
0.1000000 0.1000000 -0.5000000
130.6768
133.1801
225.8051
263.8678
283.0401
393.4574
0.1000000 0.2000000 0.0000000
131.2273
155.5041
248.8009
298.7413
329.3640
388.3869
0.1000000 0.2000000 0.1000000
146.4775
170.0195
268.6834
295.3563
317.5450
388.6213
0.1000000 0.2000000 0.2000000
184.5978
201.6485
274.0556
287.0549
318.1335
383.9187
0.1000000 0.2000000 0.3000000
227.1235
231.2450
249.5737
250.9938
357.2354
365.6038
0.1000000 0.2000000 0.4000000
197.0679
211.2660
267.8550
276.3662
330.2009
380.4427
0.1000000 0.2000000 -0.5000000
155.6454
178.0491
277.1257
295.1513
310.4757
388.1978
0.1000000 0.3000000 0.0000000
178.2917
197.4937
294.3897
329.9900
359.8093
368.6547
0.1000000 0.3000000 0.1000000
180.0678
210.0172
302.3140
329.5983
339.7638
385.1007
0.1000000 0.3000000 0.2000000
198.1780
237.2474
289.6833
303.5256
360.5098
394.1608
0.1000000 0.3000000 0.3000000
233.6796
244.2965
272.9812
279.7132
384.5189
388.8769
0.1000000 0.3000000 0.4000000
206.9578
245.1958
280.1885
297.0720
368.3126
394.2515
0.1000000 0.3000000 -0.5000000
182.9871
216.8924
302.7317
323.1748
342.1254
388.9005
0.1000000 0.4000000 0.0000000
217.8606
218.9759
315.7449
346.9907
350.1780
377.8836
0.1000000 0.4000000 0.1000000
209.2754
232.2068
313.1613
330.0882
363.4594
390.1562
0.1000000 0.4000000 0.2000000
210.3019
256.8602
284.4692
316.5500
386.0172
403.7097
0.1000000 0.4000000 0.3000000
233.9215
243.7176
287.9195
295.2040
402.5930
404.8566
0.1000000 0.4000000 0.4000000
214.6987
262.7054
276.0970
311.4157
391.8926
405.4622
0.1000000 0.4000000 -0.5000000
207.6531
238.3787
307.2280
326.4495
369.3478
394.8561
0.2000000 0.2000000 0.0000000
162.1208
178.4741
286.2342
314.1903
352.5640
376.4055
0.2000000 0.2000000 0.1000000
168.7530
192.0160
294.3795
318.3724
334.1007
385.7318
0.2000000 0.2000000 0.2000000
194.9063
221.6340
284.1255
298.6263
348.5458
390.9991
0.2000000 0.2000000 0.3000000
234.3288
243.6558
260.4734
266.7048
376.6968
382.1422
0.2000000 0.2000000 0.4000000
205.3850
230.7189
276.8409
288.7995
357.5600
390.1108
0.2000000 0.2000000 -0.5000000
174.0439
199.4691
294.3201
321.1050
328.6545
388.3437
0.2000000 0.3000000 0.0000000
198.2085
227.7850
300.6242
351.7842
358.1624
361.7521
0.2000000 0.3000000 0.1000000
194.5364
238.0652
313.0130
327.2770
354.8580
383.1286
0.2000000 0.3000000 0.2000000
202.3312
259.9488
290.1259
317.6353
370.8916
395.5246
0.2000000 0.3000000 0.3000000
231.0771
241.4944
294.1631
300.5434
390.4189
393.7140
0.2000000 0.3000000 0.4000000
208.5964
262.3051
283.8206
314.1422
377.2404
396.5619
0.2000000 0.3000000 -0.5000000
194.5933
243.8805
313.9014
320.1622
357.3704
387.8837
0.2000000 0.4000000 0.0000000
231.5559
262.4363
316.0504
336.9896
360.8408
376.8677
0.2000000 0.4000000 0.1000000
220.2265
271.1485
312.9277
331.4011
373.5231
381.6260
0.2000000 0.4000000 0.2000000
213.1116
270.4943
298.4606
339.9808
383.9373
396.3858
0.2000000 0.4000000 0.3000000
228.7028
236.7883
320.3613
326.2069
397.3974
399.2056
0.2000000 0.4000000 0.4000000
215.1206
261.0790
304.1459
337.6257
388.4166
398.6288
0.2000000 0.4000000 -0.5000000
216.4049
275.4871
304.0050
336.4710
375.3375
386.3723
0.3000000 0.3000000 0.0000000
223.1141
223.6324
317.5108
343.9697
352.2452
378.6558
0.3000000 0.3000000 0.1000000
212.4232
237.6023
313.4093
330.2813
365.2358
389.9754
0.3000000 0.3000000 0.2000000
211.1768
261.4615
283.1670
319.9603
387.1459
403.6113
0.3000000 0.3000000 0.3000000
232.9823
242.4850
292.3395
299.4821
403.1089
405.2179
0.3000000 0.3000000 0.4000000
214.9707
264.7391
277.2189
315.1442
392.8391
405.4765
0.3000000 0.3000000 -0.5000000
210.1720
243.6852
306.4269
328.1130
370.9674
394.6114
P = 786.6200	V = 115.9289	E = -655.38873299000000	S_el = 0.00001250070000
0.0000000 0.0000000 0.0000000
0.0000
0.0000
0.0000
275.7149
275.7149
451.5575
0.0000000 0.0000000 0.1000000
70.4504
70.4504
140.5116
267.8773
267.8773
442.5845
0.0000000 0.0000000 0.2000000
131.2478
131.2478
241.7382
241.7382
261.9178
416.4362
0.0000000 0.0000000 0.3000000
184.4506
184.4506
198.4287
198.4287
350.5830
369.0896
0.0000000 0.0000000 0.4000000
146.6717
146.6717
231.0145
231.0145
290.3774
405.7147
0.0000000 0.0000000 -0.5000000
88.5637
88.5637
177.2030
262.5440
262.5440
436.9893
0.0000000 0.1000000 0.0000000
64.1110
76.0705
139.9624
284.4006
298.7867
446.0122
0.0000000 0.1000000 0.1000000
104.2248
109.2333
186.6668
277.2187
290.6290
438.1993
0.0000000 0.1000000 0.2000000
153.1407
162.7089
253.3179
264.7324
278.8622
415.2453
0.0000000 0.1000000 0.3000000
201.0168
211.0067
213.7666
223.9114
356.3636
372.9354
0.0000000 0.1000000 0.4000000
166.8179
176.5695
243.5216
254.4680
303.2371
405.7222
0.0000000 0.1000000 -0.5000000
117.5543
125.0587
211.5565
272.3374
285.2163
433.3183
0.0000000 0.2000000 0.0000000
125.7350
140.1681
256.7233
303.9068
347.2295
430.3902
0.0000000 0.2000000 0.1000000
149.0694
157.8546
280.3950
298.0335
336.2266
427.5729
0.0000000 0.2000000 0.2000000
195.0453
197.6111
278.6169
305.4175
331.7616
416.6939
0.0000000 0.2000000 0.3000000
235.3901
245.9033
248.1524
261.5989
380.3711
391.0142
0.0000000 0.2000000 0.4000000
206.6625
211.7261
270.6137
294.1203
346.6400
411.3082
0.0000000 0.2000000 -0.5000000
161.4699
167.3815
292.4101
295.1068
329.3847
425.5730
0.0000000 0.3000000 0.0000000
181.8681
183.6862
322.8276
335.3345
390.1762
407.0951
0.0000000 0.3000000 0.1000000
189.3978
197.6978
317.7911
351.5928
366.3165
421.6846
0.0000000 0.3000000 0.2000000
216.8590
229.6153
301.7404
323.5468
387.9164
429.4889
0.0000000 0.3000000 0.3000000
261.4613
264.8188
273.4359
275.9498
416.2239
421.5104
0.0000000 0.3000000 0.4000000
228.0624
239.6338
295.0806
310.5089
397.0795
428.9605
0.0000000 0.3000000 -0.5000000
194.9183
205.5547
314.5121
352.3579
364.2907
425.2388
0.0000000 0.4000000 0.0000000
205.0655
228.8036
334.6147
375.9778
382.0392
411.9975
0.0000000 0.4000000 0.1000000
217.3642
225.8245
329.9428
358.9293
393.5508
427.9787
0.0000000 0.4000000 0.2000000
232.1588
246.8712
314.7286
320.8800
421.6335
443.2116
0.0000000 0.4000000 0.3000000
262.8817
275.1943
280.3056
289.2676
440.8170
443.5553
0.0000000 0.4000000 0.4000000
238.2754
256.3759
306.8856
310.0199
428.3813
444.9231
0.0000000 0.4000000 -0.5000000
223.9902
226.1138
326.8514
349.3896
401.3679
433.4281
0.0000000 -0.5000000 0.0000000
210.7079
262.2173
340.0035
359.7861
390.5836
417.3875
0.0000000 -0.5000000 0.1000000
222.3714
251.0472
335.1188
346.1380
408.2734
430.4250
0.0000000 -0.5000000 0.2000000
242.2214
251.1868
314.6822
319.4564
435.0481
447.9172
0.0000000 -0.5000000 0.3000000
262.3081
272.8332
284.8695
293.6885
450.1271
451.7571
0.0000000 -0.5000000 0.4000000
244.5518
260.6463
303.2413
313.2824
440.7252
450.5629
0.0000000 -0.5000000 -0.5000000
229.2197
246.7299
331.8264
338.9051
416.2747
436.1316
0.1000000 0.1000000 0.0000000
90.0946
106.5037
191.0851
292.7250
317.2384
440.6333
0.1000000 0.1000000 0.1000000
125.1283
128.8434
224.6891
286.1061
308.4484
434.1876
0.1000000 0.1000000 0.2000000
171.2542
179.0748
264.0217
281.6771
297.1679
414.8617
0.1000000 0.1000000 0.3000000
215.2099
224.5226
230.7175
241.0689
363.5425
378.0487
0.1000000 0.1000000 0.4000000
183.7966
193.1052
255.0488
271.3159
317.6615
406.6635
0.1000000 0.1000000 -0.5000000
138.8025
141.7154
243.2884
281.6225
302.7324
430.1335
0.1000000 0.2000000 0.0000000
139.5298
165.2987
267.5190
320.2181
353.5138
425.4163
0.1000000 0.2000000 0.1000000
156.1396
180.7889
288.5466
317.0413
340.9550
424.6226
0.1000000 0.2000000 0.2000000
197.1726
214.6488
292.6272
307.9760
343.7680
417.6224
0.1000000 0.2000000 0.3000000
242.5624
246.4748
266.9648
268.5138
386.8179
396.1551
0.1000000 0.2000000 0.4000000
210.4529
224.8915
286.0578
296.4490
356.8679
413.3736
0.1000000 0.2000000 -0.5000000
165.9693
189.3058
296.7752
317.7158
333.4001
423.6515
0.1000000 0.3000000 0.0000000
189.9778
210.4598
315.8066
356.3224
388.3207
402.5501
0.1000000 0.3000000 0.1000000
192.0622
223.9416
323.6990
356.2274
367.8083
419.1400
0.1000000 0.3000000 0.2000000
211.7584
253.1283
311.2854
326.0356
390.3703
428.3887
0.1000000 0.3000000 0.3000000
250.2664
261.5421
292.4537
299.4344
416.7823
421.7029
0.1000000 0.3000000 0.4000000
221.2038
261.5633
301.4849
318.5241
398.8071
428.2316
0.1000000 0.3000000 -0.5000000
195.2413
231.2656
324.1136
349.1015
370.4506
423.1269
0.1000000 0.4000000 0.0000000
233.1082
233.8553
339.0969
377.5621
379.9906
410.0965
0.1000000 0.4000000 0.1000000
223.8247
248.5394
336.9564
357.4173
394.7200
424.3816
0.1000000 0.4000000 0.2000000
225.2679
274.9030
307.3350
340.5153
419.1925
439.5020
0.1000000 0.4000000 0.3000000
251.2038
261.8823
309.0493
316.8608
437.6017
440.2266
0.1000000 0.4000000 0.4000000
230.0463
281.1802
298.1584
334.7626
425.5976
441.3086
0.1000000 0.4000000 -0.5000000
222.2081
255.1255
331.2921
352.5767
401.0365
429.6823
0.2000000 0.2000000 0.0000000
172.6383
189.9458
307.2877
338.3571
379.6388
411.6618
0.2000000 0.2000000 0.1000000
179.9628
204.5110
315.0597
343.7978
360.5335
420.3928
0.2000000 0.2000000 0.2000000
208.2929
236.3014
304.0047
321.2576
377.0007
424.9375
0.2000000 0.2000000 0.3000000
250.7679
260.3806
278.9866
285.4095
408.0211
414.1485
0.2000000 0.2000000 0.4000000
219.5208
245.9826
296.4954
310.2441
386.7756
423.6359
0.2000000 0.2000000 -0.5000000
185.6785
212.4519
314.8057
346.2649
355.3028
422.8853
0.2000000 0.3000000 0.0000000
211.3226
243.1919
322.6862
380.8416
388.7026
392.7405
0.2000000 0.3000000 0.1000000
207.5647
254.2190
335.6134
354.5596
384.6789
416.6251
0.2000000 0.3000000 0.2000000
216.1252
277.5482
313.6886
340.3665
402.3151
430.1028
0.2000000 0.3000000 0.3000000
247.6072
258.9347
315.4147
322.0955
423.6827
427.4145
0.2000000 0.3000000 0.4000000
222.9003
280.4184
306.2227
336.6690
409.1315
431.0546
0.2000000 0.3000000 -0.5000000
207.6772
260.3887
337.6773
345.4299
387.5782
421.8711
0.2000000 0.4000000 0.0000000
247.3503
281.1533
340.0994
366.2551
390.9858
409.1174
0.2000000 0.4000000 0.1000000
235.5430
290.4151
339.6242
356.4852
405.8613
414.8864
0.2000000 0.4000000 0.2000000
228.0248
291.2565
321.8003
365.4815
417.5114
431.5961
0.2000000 0.4000000 0.3000000
245.3563
254.3611
344.4609
350.6963
432.1897
434.2655
0.2000000 0.4000000 0.4000000
230.2016
281.3870
327.2971
363.0050
422.3025
433.9726
0.2000000 0.4000000 -0.5000000
231.5469
294.9505
330.0632
361.7643
408.0089
420.3341
0.3000000 0.3000000 0.0000000
238.6776
239.0560
341.1084
374.3505
382.0402
411.1787
0.3000000 0.3000000 0.1000000
227.2583
254.4273
337.7215
357.2539
396.7543
424.2787
0.3000000 0.3000000 0.2000000
226.2390
279.8977
306.1591
344.2320
420.5656
439.5142
0.3000000 0.3000000 0.3000000
250.2141
260.6025
313.9305
321.6007
438.3064
440.7616
0.3000000 0.3000000 0.4000000
230.3640
283.8147
299.1460
338.8719
426.7747
441.4515
0.3000000 0.3000000 -0.5000000
224.9698
260.9190
330.9127
354.0418
402.9282
429.5101
P = 1033.6700	V = 111.4903	E = -655.36377406000000	S_el = 0.00001170602000
0.0000000 0.0000000 0.0000000
0.0000
0.0000
0.0000
290.4907
290.4907
487.0320
0.0000000 0.0000000 0.1000000
73.3425
73.3425
149.7297
282.2101
282.2101
476.5099
0.0000000 0.0000000 0.2000000
137.3937
137.3937
254.6283
254.6283
279.3642
446.6179
0.0000000 0.0000000 0.3000000
194.0111
194.0111
208.7689
208.7689
374.5547
394.4676
0.0000000 0.0000000 0.4000000
153.6762
153.6762
243.3805
243.3805
309.6416
434.7283
0.0000000 0.0000000 -0.5000000
92.2018
92.2018
188.6139
276.6254
276.6254
470.0658
0.0000000 0.1000000 0.0000000
67.3213
79.6658
148.4846
299.7850
315.2498
480.8365
0.0000000 0.1000000 0.1000000
109.0051
115.0053
198.4104
292.1604
306.5980
471.6038
0.0000000 0.1000000 0.2000000
160.5509
171.0818
266.8540
279.1683
297.2151
445.2095
0.0000000 0.1000000 0.3000000
211.4531
222.2315
224.9144
235.8408
380.6065
398.4723
0.0000000 0.1000000 0.4000000
174.9744
185.6206
256.5551
268.3497
323.2175
434.6077
0.0000000 0.1000000 -0.5000000
122.8862
131.4562
224.9006
287.0277
300.9047
465.9421
0.0000000 0.2000000 0.0000000
132.1969
147.0084
272.7637
320.7580
367.5408
463.4017
0.0000000 0.2000000 0.1000000
157.1792
165.6301
298.0888
314.4095
355.9176
459.5887
0.0000000 0.2000000 0.2000000
205.0757
208.4728
293.7033
323.0596
353.2365
446.3096
0.0000000 0.2000000 0.3000000
247.7705
258.9715
262.0339
276.3328
405.8348
417.4242
0.0000000 0.2000000 0.4000000
217.1747
223.4282
285.2359
311.0938
369.1583
440.1437
0.0000000 0.2000000 -0.5000000
170.2686
175.6081
309.3792
312.7815
348.7141
457.0380
0.0000000 0.3000000 0.0000000
191.5750
193.1466
341.3213
357.1641
414.6817
437.5506
0.0000000 0.3000000 0.1000000
199.8650
207.9932
335.8927
374.2831
390.3640
451.8345
0.0000000 0.3000000 0.2000000
229.2913
241.8059
318.5721
343.8678
413.5735
459.4728
0.0000000 0.3000000 0.3000000
276.9139
279.2534
288.7228
292.0301
444.2341
450.0529
0.0000000 0.3000000 0.4000000
241.1657
252.3472
311.4677
329.8795
423.3655
458.6675
0.0000000 0.3000000 -0.5000000
205.7778
216.2613
332.3715
374.8357
388.4180
455.4404
0.0000000 0.4000000 0.0000000
216.3121
241.6814
354.5005
401.5405
409.4922
440.2391
0.0000000 0.4000000 0.1000000
229.3907
238.9538
349.4525
383.5687
420.5660
458.2565
0.0000000 0.4000000 0.2000000
246.1411
260.6268
333.2318
341.8713
450.6547
474.8007
0.0000000 0.4000000 0.3000000
279.2661
292.5237
296.0592
305.5858
471.5973
474.6750
0.0000000 0.4000000 0.4000000
252.6800
270.6136
325.5842
329.3633
457.9110
476.5330
0.0000000 0.4000000 -0.5000000
236.5450
239.2390
346.1308
373.2343
428.8388
464.2190
0.0000000 -0.5000000 0.0000000
222.9783
277.7233
360.7187
384.6351
418.0565
448.0725
0.0000000 -0.5000000 0.1000000
235.3500
266.5897
355.4826
369.8974
436.9504
462.2398
0.0000000 -0.5000000 0.2000000
257.8177
265.7721
335.4350
338.9829
465.9378
481.0765
0.0000000 -0.5000000 0.3000000
279.3458
290.5911
301.4612
310.8206
482.7553
484.6906
0.0000000 -0.5000000 0.4000000
260.3058
275.6927
323.7447
331.7401
472.1464
483.8112
0.0000000 -0.5000000 -0.5000000
242.5371
262.2877
352.0828
362.0158
445.4965
468.3889
0.1000000 0.1000000 0.0000000
94.6435
111.6290
202.7954
308.7366
335.1024
474.8307
0.1000000 0.1000000 0.1000000
131.7991
135.0837
238.7033
301.6821
325.7693
467.1039
0.1000000 0.1000000 0.2000000
179.7333
188.6454
278.1940
297.3232
316.5458
444.6628
0.1000000 0.1000000 0.3000000
226.4179
236.3685
243.1427
254.1684
388.1294
403.8148
0.1000000 0.1000000 0.4000000
192.9461
203.3365
268.7477
286.3831
338.4458
435.4798
0.1000000 0.1000000 -0.5000000
145.6348
148.9958
258.5012
296.9555
319.7438
462.3422
0.1000000 0.2000000 0.0000000
146.7212
173.6159
283.6903
338.9186
374.4122
457.8540
0.1000000 0.2000000 0.1000000
164.5084
189.9466
305.6353
336.0366
361.1949
456.2191
0.1000000 0.2000000 0.2000000
208.0042
225.7290
308.6312
326.0543
366.1816
447.1962
0.1000000 0.2000000 0.3000000
255.7921
259.5039
281.9006
283.6420
412.7089
422.8924
0.1000000 0.2000000 0.4000000
221.9474
236.5014
301.7369
313.8118
380.1682
442.2650
0.1000000 0.2000000 -0.5000000
174.8863
198.8714
313.6374
337.5097
353.2367
454.7858
0.1000000 0.3000000 0.0000000
200.1008
221.5385
334.2336
379.3490
412.8618
432.4584
0.1000000 0.3000000 0.1000000
202.4592
235.8844
342.1570
379.3285
392.3204
449.0115
0.1000000 0.3000000 0.2000000
223.5019
266.7793
329.8539
345.6642
416.4963
458.3674
0.1000000 0.3000000 0.3000000
264.5624
276.3677
309.3046
316.4799
444.9885
450.3967
0.1000000 0.3000000 0.4000000
233.4938
275.6238
319.8586
337.1798
425.4673
457.9795
0.1000000 0.3000000 -0.5000000
205.8559
243.5962
342.5647
371.6237
395.2294
453.1418
0.1000000 0.4000000 0.0000000
246.1592
246.8197
359.2540
404.1756
406.1005
438.2514
0.1000000 0.4000000 0.1000000
236.4317
262.6613
357.4216
381.3465
422.0614
454.3304
0.1000000 0.4000000 0.2000000
238.2418
290.5059
327.1483
361.3529
448.2072
470.8231
0.1000000 0.4000000 0.3000000
266.1477
277.5649
327.3792
335.6265
468.2012
471.1399
0.1000000 0.4000000 0.4000000
243.3302
297.1381
317.3127
355.0388
455.0585
472.6663
0.1000000 0.4000000 -0.5000000
234.8308
269.6031
352.0082
375.4657
428.7480
460.1549
0.2000000 0.2000000 0.0000000
181.7482
199.7165
325.3896
359.5087
403.1468
442.5190
0.2000000 0.2000000 0.1000000
189.6791
215.1977
332.8946
365.9478
383.5034
450.8345
0.2000000 0.2000000 0.2000000
219.8598
248.8853
321.1186
340.9081
401.8862
454.6873
0.2000000 0.2000000 0.3000000
264.9132
274.7355
294.9763
301.5787
435.4100
442.1324
0.2000000 0.2000000 0.4000000
231.7029
259.0712
313.3992
328.8970
412.3062
453.0091
0.2000000 0.2000000 -0.5000000
195.7501
223.5583
332.4979
368.0684
378.5909
453.2107
0.2000000 0.3000000 0.0000000
222.6854
256.4070
341.6771
406.0626
415.1108
420.2063
0.2000000 0.3000000 0.1000000
218.8585
268.1056
355.1088
378.2695
410.8096
445.9554
0.2000000 0.3000000 0.2000000
228.0567
292.6977
334.1545
360.0392
429.8252
460.3528
0.2000000 0.3000000 0.3000000
261.8672
273.9542
333.8206
340.7335
452.7653
456.8685
0.2000000 0.3000000 0.4000000
235.2475
295.9786
325.7249
356.1536
437.0329
461.2208
0.2000000 0.3000000 -0.5000000
219.0158
274.5814
357.9378
367.7043
414.0278
451.6169
0.2000000 0.4000000 0.0000000
261.0450
297.2927
360.8477
391.8053
417.2423
437.3515
0.2000000 0.4000000 0.1000000
248.8219
307.0420
362.7835
378.2882
434.1593
443.9577
0.2000000 0.4000000 0.2000000
240.9385
309.1124
342.1902
387.5750
446.8947
462.3601
0.2000000 0.4000000 0.3000000
259.7443
269.5279
365.3623
371.9138
462.6021
464.8992
0.2000000 0.4000000 0.4000000
243.2431
298.9061
347.4584
384.9901
451.9476
464.8487
0.2000000 0.4000000 -0.5000000
244.6782
311.7492
352.7575
383.6836
436.6021
449.9994
0.3000000 0.3000000 0.0000000
251.9760
252.5274
361.4752
400.8848
408.0450
439.6141
0.3000000 0.3000000 0.1000000
240.1143
268.9803
358.6246
380.8925
424.3146
454.2951
0.3000000 0.3000000 0.2000000
239.2961
295.8437
326.1043
365.3196
449.7925
470.9304
0.3000000 0.3000000 0.3000000
265.1147
276.2470
332.6635
340.7701
469.0709
471.8270
0.3000000 0.3000000 0.4000000
243.6883
300.2525
318.2414
359.4702
456.4367
472.9202
0.3000000 0.3000000 -0.5000000
237.8039
275.8228
352.0251
376.7345
430.8727
460.0447
P = 1532.8000	V = 104.5144	E = -655.30707773000000	S_el = 0.00001051658667
0.0000000 0.0000000 0.0000000
0.0000
0.0000
0.0000
315.7420
315.7420
548.3262
0.0000000 0.0000000 0.1000000
78.2598
78.2598
165.5853
306.7003
306.7003
535.1576
0.0000000 0.0000000 0.2000000
147.7580
147.7580
276.5802
276.5802
309.4723
498.8298
0.0000000 0.0000000 0.3000000
210.1667
210.1667
226.2371
226.2371
416.0363
438.3320
0.0000000 0.0000000 0.4000000
165.4378
165.4378
264.4330
264.4330
342.8222
484.9764
0.0000000 0.0000000 -0.5000000
98.3194
98.3194
208.1419
300.6925
300.6925
527.3010
0.0000000 0.1000000 0.0000000
72.8484
85.7431
163.1912
326.0684
343.3585
540.9948
0.0000000 0.1000000 0.1000000
117.1060
124.8489
218.6837
317.6834
333.8759
529.3616
0.0000000 0.1000000 0.2000000
173.0685
185.2858
289.9080
303.7565
328.9166
497.0737
0.0000000 0.1000000 0.3000000
229.1124
241.2509
243.7712
256.0424
422.5538
442.6193
0.0000000 0.1000000 0.4000000
188.7081
200.9163
278.7477
292.0043
357.6496
484.6545
0.0000000 0.1000000 -0.5000000
131.8768
142.3108
247.8442
312.1277
327.7184
522.4101
0.0000000 0.2000000 0.0000000
143.2768
158.6113
300.4634
349.5392
402.2493
520.3883
0.0000000 0.2000000 0.1000000
171.0692
178.8307
328.6023
342.4197
389.5881
514.9692
0.0000000 0.2000000 0.2000000
222.0591
227.0274
319.4116
353.1668
390.3465
497.6030
0.0000000 0.2000000 0.3000000
268.7848
281.0846
285.7250
301.3917
449.8561
463.0649
0.0000000 0.2000000 0.4000000
234.9665
243.3222
310.1528
340.0822
408.0066
490.1062
0.0000000 0.2000000 -0.5000000
185.2858
189.5448
337.8584
343.7600
381.8153
511.5274
0.0000000 0.3000000 0.0000000
208.0426
209.3963
372.8382
394.9329
456.5379
490.2792
0.0000000 0.3000000 0.1000000
217.8171
225.5777
366.8075
413.2690
431.7381
504.0542
0.0000000 0.3000000 0.2000000
250.6047
262.6055
347.2856
378.6510
457.9154
511.3342
0.0000000 0.3000000 0.3000000
302.9648
304.2365
314.5146
319.7384
492.5853
499.3115
0.0000000 0.3000000 0.4000000
263.5652
274.0000
339.4325
363.0790
468.7352
510.0330
0.0000000 0.3000000 -0.5000000
224.3972
234.5241
362.8816
413.2944
430.1491
507.7298
0.0000000 0.4000000 0.0000000
235.6720
263.5837
388.4612
445.6909
456.7378
489.0094
0.0000000 0.4000000 0.1000000
250.0985
261.4355
382.7725
425.8693
467.2940
510.5856
0.0000000 0.4000000 0.2000000
270.1711
284.2621
364.5843
378.1294
500.7567
529.3728
0.0000000 0.4000000 0.3000000
307.3505
321.8114
323.4024
333.4780
524.6895
528.3477
0.0000000 0.4000000 0.4000000
277.3906
295.0262
357.0738
363.0503
508.8446
531.1177
0.0000000 0.4000000 -0.5000000
258.1288
261.7613
379.0708
414.2127
476.3083
517.4182
0.0000000 -0.5000000 0.0000000
244.2451
304.0464
396.0830
427.3403
465.5879
501.1819
0.0000000 -0.5000000 0.1000000
257.8453
293.1485
390.2324
410.7210
486.4715
517.3255
0.0000000 -0.5000000 0.2000000
284.6071
290.9718
370.4223
372.9352
519.1775
538.4201
0.0000000 -0.5000000 0.3000000
308.5476
320.9808
329.9616
340.1825
539.0185
541.4971
0.0000000 -0.5000000 0.4000000
287.3439
301.6238
358.6570
363.5723
526.2716
541.2687
0.0000000 -0.5000000 -0.5000000
265.5927
288.9362
386.5257
401.8802
495.8960
524.2158
0.1000000 0.1000000 0.0000000
102.4639
120.3074
223.0002
336.0988
365.5950
533.8927
0.1000000 0.1000000 0.1000000
143.1355
145.7252
262.8943
328.3051
355.3560
524.0249
0.1000000 0.1000000 0.2000000
194.0795
204.9136
302.3355
323.9941
350.0259
496.2627
0.1000000 0.1000000 0.3000000
245.4015
256.4117
264.2507
276.3913
430.6634
448.3584
0.1000000 0.1000000 0.4000000
208.3855
220.6672
292.0805
312.0782
374.2814
485.4157
0.1000000 0.1000000 -0.5000000
157.1636
161.3931
284.6751
323.1868
348.8235
518.1020
0.1000000 0.2000000 0.0000000
159.0449
187.7459
311.3625
371.1616
410.1086
513.8372
0.1000000 0.2000000 0.1000000
178.8383
205.5196
334.6822
369.0252
395.7619
510.8787
0.1000000 0.2000000 0.2000000
226.4661
244.5449
335.9085
356.9313
404.9287
498.4061
0.1000000 0.2000000 0.3000000
278.2241
281.6026
307.2931
309.4929
457.4623
469.0909
0.1000000 0.2000000 0.4000000
241.4741
256.1779
328.4617
343.4942
420.3896
492.3052
0.1000000 0.2000000 -0.5000000
190.1087
215.1114
342.2508
371.8682
387.1681
508.7000
0.1000000 0.3000000 0.0000000
217.3866
240.4271
365.6073
419.1733
454.7856
484.2572
0.1000000 0.3000000 0.1000000
220.2746
256.2730
373.6420
418.8740
434.7056
500.7056
0.1000000 0.3000000 0.2000000
243.6063
290.0547
361.3316
379.4771
461.6847
510.1785
0.1000000 0.3000000 0.3000000
288.9141
301.5392
338.1501
345.6188
493.6892
499.9168
0.1000000 0.3000000 0.4000000
254.4729
299.5566
351.1037
369.2820
471.5226
509.3801
0.1000000 0.3000000 -0.5000000
224.0427
264.6268
374.0267
410.2118
438.1144
505.0578
0.1000000 0.4000000 0.0000000
268.2622
269.1775
393.6397
449.8325
451.3077
486.8963
0.1000000 0.4000000 0.1000000
258.0151
286.8926
392.1660
422.6142
469.3391
506.0598
0.1000000 0.4000000 0.2000000
260.5076
317.2330
360.9316
397.1374
498.3278
524.8861
0.1000000 0.4000000 0.3000000
291.6784
304.2780
358.8251
367.7662
520.9884
524.4520
0.1000000 0.4000000 0.4000000
266.0875
324.3978
350.0895
389.8288
505.9042
526.7759
0.1000000 0.4000000 -0.5000000
256.4713
294.4289
387.1432
415.0212
476.6431
512.7625
0.2000000 0.2000000 0.0000000
197.3175
216.3571
356.1826
396.1530
443.4547
495.7339
0.2000000 0.2000000 0.1000000
206.3274
233.4250
363.3018
404.0606
422.9968
503.5423
0.2000000 0.2000000 0.2000000
239.6333
270.3306
350.2460
374.5810
444.9154
506.1552
0.2000000 0.2000000 0.3000000
288.9708
299.1003
322.2907
329.2390
482.7103
490.4442
0.2000000 0.2000000 0.4000000
252.4632
281.3371
342.1387
360.9458
456.3920
503.8148
0.2000000 0.2000000 -0.5000000
212.9892
242.4801
362.6957
405.3739
418.8613
505.7197
0.2000000 0.3000000 0.0000000
242.0826
278.9482
374.0348
449.3613
460.2087
468.1618
0.2000000 0.3000000 0.1000000
238.2076
291.8111
388.3481
418.8678
456.1010
496.6086
0.2000000 0.3000000 0.2000000
248.5100
318.5145
369.1675
393.6752
477.4282
512.5467
0.2000000 0.3000000 0.3000000
286.1845
299.4836
365.3359
372.5827
502.9746
507.6832
0.2000000 0.3000000 0.4000000
256.3606
322.3904
359.2290
389.4417
485.2643
513.2654
0.2000000 0.3000000 -0.5000000
238.4572
298.7910
392.0571
406.3565
459.8310
502.9536
0.2000000 0.4000000 0.0000000
284.4233
324.8893
396.2687
435.7746
462.4125
486.2153
0.2000000 0.4000000 0.1000000
271.5414
335.4688
402.2010
415.8426
483.0648
494.1112
0.2000000 0.4000000 0.2000000
263.0915
339.3003
377.3768
425.3485
497.6903
515.3390
0.2000000 0.4000000 0.3000000
284.3250
295.3566
401.1671
408.2087
515.0702
517.7075
0.2000000 0.4000000 0.4000000
265.5928
328.6135
382.1671
422.5773
503.1646
518.0200
0.2000000 0.4000000 -0.5000000
267.1770
340.4522
391.6162
421.2074
486.0379
501.0960
0.3000000 0.3000000 0.0000000
274.4593
275.7995
396.2159
446.5454
452.9246
488.7598
0.3000000 0.3000000 0.1000000
262.1194
293.9522
394.0651
421.7216
471.9504
506.1434
0.3000000 0.3000000 0.2000000
261.7042
323.1530
360.1486
401.4971
500.2717
525.1513
0.3000000 0.3000000 0.3000000
290.5739
302.8989
364.8005
373.6014
522.1394
525.3981
0.3000000 0.3000000 0.4000000
266.5183
328.2342
351.0355
394.7892
507.6246
527.2146
0.3000000 0.3000000 -0.5000000
259.8041
301.3799
387.8489
415.9418
479.1536
512.7580
P = 2030.2600	V = 99.1777	E = -655.24534351000000	S_el = 0.00000965992333
0.0000000 0.0000000 0.0000000
0.0000
0.0000
0.0000
337.1146
337.1146
600.4306
0.0000000 0.0000000 0.1000000
82.7330
82.7330
178.9509
327.4410
327.4410
585.0447
0.0000000 0.0000000 0.2000000
156.7723
156.7723
295.1403
295.1403
334.9973
543.2898
0.0000000 0.0000000 0.3000000
223.8647
223.8647
240.9807
240.9807
451.3640
475.6471
0.0000000 0.0000000 0.4000000
175.5292
175.5292
282.2453
282.2453
370.9033
527.8220
0.0000000 0.0000000 -0.5000000
103.7847
103.7847
224.5135
321.0895
321.0895
576.0427
0.0000000 0.1000000 0.0000000
77.5734
90.9181
175.7747
348.2936
367.0960
592.1308
0.0000000 0.1000000 0.1000000
124.1378
133.2171
235.9886
339.2770
356.9421
578.5136
0.0000000 0.1000000 0.2000000
183.8083
197.3987
309.3842
324.5235
355.8696
541.2814
0.0000000 0.1000000 0.3000000
244.0489
257.3178
259.6678
273.0620
458.2993
480.2039
0.0000000 0.1000000 0.4000000
200.3949
213.8860
297.5080
312.0019
386.8499
527.3662
0.0000000 0.1000000 -0.5000000
139.6487
151.5381
267.3000
333.3776
350.4153
570.5265
0.0000000 0.2000000 0.0000000
152.6788
168.5032
324.1647
373.8440
431.5400
568.8115
0.0000000 0.2000000 0.1000000
182.8216
190.0916
354.6252
366.1408
418.0459
562.1372
0.0000000 0.2000000 0.2000000
236.4132
242.7467
341.1065
378.5783
422.0094
541.3856
0.0000000 0.2000000 0.3000000
286.5201
299.6658
305.7400
322.4839
487.3928
501.9586
0.0000000 0.2000000 0.4000000
250.0009
260.0668
331.1926
364.5754
441.0775
532.7838
0.0000000 0.2000000 -0.5000000
197.9492
201.3987
361.5458
370.5456
409.8476
558.0016
0.0000000 0.3000000 0.0000000
221.8983
223.2959
399.4308
427.2181
492.0082
535.0531
0.0000000 0.3000000 0.1000000
233.0152
240.5793
392.8996
446.3523
466.9145
548.6018
0.0000000 0.3000000 0.2000000
268.6621
280.2504
371.5135
408.0253
495.7545
555.5582
0.0000000 0.3000000 0.3000000
324.5700
325.7537
336.0791
343.3006
533.7650
541.2454
0.0000000 0.3000000 0.4000000
282.4851
292.3175
363.0490
391.1611
507.3872
553.8294
0.0000000 0.3000000 -0.5000000
240.1613
250.0604
388.6452
445.7765
465.8086
552.3357
0.0000000 0.4000000 0.0000000
252.3317
281.8888
417.1055
483.3952
496.7680
530.5937
0.0000000 0.4000000 0.1000000
267.8620
280.4031
410.8797
461.6358
507.2170
555.1843
0.0000000 0.4000000 0.2000000
290.5677
304.4149
390.9138
408.8955
543.4348
575.8429
0.0000000 0.4000000 0.3000000
331.1040
346.1045
347.0140
357.0830
569.8482
573.9880
0.0000000 0.4000000 0.4000000
298.3254
315.7845
383.2820
391.9526
552.1807
577.5807
0.0000000 0.4000000 -0.5000000
276.5381
280.8689
406.8730
448.8966
516.8100
562.7320
0.0000000 -0.5000000 0.0000000
262.6392
325.9682
425.8913
463.4622
506.2365
546.5594
0.0000000 -0.5000000 0.1000000
277.2467
315.4631
419.5299
445.2204
528.6890
564.3649
0.0000000 -0.5000000 0.2000000
307.2889
312.5672
399.3624
402.1722
564.4258
587.2876
0.0000000 -0.5000000 0.3000000
333.2191
346.6018
354.2107
365.0956
586.8369
589.7849
0.0000000 -0.5000000 0.4000000
310.2242
323.7797
387.7950
390.8376
572.2358
590.1977
0.0000000 -0.5000000 -0.5000000
285.4310
311.3971
415.5141
435.6493
538.7900
571.8491
0.1000000 0.1000000 0.0000000
109.1321
127.6973
240.2828
359.2322
391.3190
584.0928
0.1000000 0.1000000 0.1000000
152.6846
154.8953
283.5660
350.8331
380.3545
572.4803
0.1000000 0.1000000 0.2000000
206.3077
218.6926
322.7190
346.5151
378.5446
540.2751
0.1000000 0.1000000 0.3000000
261.4331
273.2765
282.0747
295.1023
466.9240
486.3013
0.1000000 0.1000000 0.4000000
221.4697
235.2898
311.7940
333.7930
404.7270
528.0559
0.1000000 0.1000000 -0.5000000
166.9418
171.9354
306.9273
345.4159
373.4228
565.6341
0.1000000 0.2000000 0.0000000
169.4907
199.7627
334.8140
398.6623
440.2107
561.4021
0.1000000 0.2000000 0.1000000
190.9672
218.7691
359.0943
397.3746
424.9305
557.4371
0.1000000 0.2000000 0.2000000
242.0431
260.4763
358.9124
383.0021
438.0075
542.1110
0.1000000 0.2000000 0.3000000
297.0632
300.2032
328.6783
331.3552
495.6251
508.4606
0.1000000 0.2000000 0.4000000
257.8966
272.7816
351.0115
368.5874
454.6578
535.0369
0.1000000 0.2000000 -0.5000000
202.9556
228.8964
366.2825
401.3291
415.8602
554.6826
0.1000000 0.3000000 0.0000000
231.9410
256.4982
392.0540
453.1952
490.3319
528.2519
0.1000000 0.3000000 0.1000000
235.3625
273.5987
400.1924
452.2785
470.9177
544.7715
0.1000000 0.3000000 0.2000000
260.6433
309.7451
387.6768
408.2300
500.2744
554.3172
0.1000000 0.3000000 0.3000000
309.4252
322.6647
362.5731
370.2575
535.1762
542.0727
0.1000000 0.3000000 0.4000000
272.1963
319.7522
377.3121
396.5965
510.7930
553.1695
0.1000000 0.3000000 -0.5000000
239.4529
282.4629
400.5466
442.8179
474.7847
549.3003
0.1000000 0.4000000 0.0000000
286.8052
288.2431
422.6385
488.4257
489.9508
528.3968
0.1000000 0.4000000 0.1000000
276.2708
307.5150
421.3094
457.6435
509.7067
550.1200
0.1000000 0.4000000 0.2000000
279.4174
339.9058
389.2917
427.4768
541.0462
570.8754
0.1000000 0.4000000 0.3000000
313.2327
326.7394
385.4951
394.9701
565.8946
569.7816
0.1000000 0.4000000 0.4000000
285.3803
347.4305
377.7351
419.3108
549.1932
572.7938
0.1000000 0.4000000 -0.5000000
274.8079
315.5363
416.5315
448.7074
517.5088
557.5323
0.2000000 0.2000000 0.0000000
210.4487
230.5322
382.1149
427.5296
477.5775
540.9204
0.2000000 0.2000000 0.1000000
220.4269
248.9298
388.9409
436.4313
456.5727
548.4804
0.2000000 0.2000000 0.2000000
256.3578
288.4897
374.7691
403.0544
481.6559
550.0487
0.2000000 0.2000000 0.3000000
309.2078
319.5695
345.3718
352.6543
523.0162
531.5883
0.2000000 0.2000000 0.4000000
269.9656
300.1389
366.3105
388.1338
493.9706
547.1473
0.2000000 0.2000000 -0.5000000
227.5779
258.5391
388.1755
436.8890
453.2744
550.5077
0.2000000 0.3000000 0.0000000
258.4020
298.0710
401.3357
486.1118
498.2526
509.3282
0.2000000 0.3000000 0.1000000
254.5888
311.9086
416.3701
453.1198
494.8721
539.7137
0.2000000 0.3000000 0.2000000
265.8803
340.3038
398.6751
422.0894
518.0897
556.9265
0.2000000 0.3000000 0.3000000
306.6907
320.9176
392.0106
399.4802
545.7371
550.9198
0.2000000 0.3000000 0.4000000
274.2447
344.5627
387.6225
417.5366
526.4122
557.5235
0.2000000 0.3000000 -0.5000000
254.9456
319.2851
420.5041
439.3306
499.0045
546.6071
0.2000000 0.4000000 0.0000000
304.0796
348.2869
426.1971
473.0530
500.7715
527.9656
0.2000000 0.4000000 0.1000000
290.7260
359.5464
435.1417
447.8678
524.7615
536.7813
0.2000000 0.4000000 0.2000000
281.9105
364.4241
407.3431
457.2226
541.0167
560.2810
0.2000000 0.4000000 0.3000000
305.0933
317.0719
431.4580
438.8647
559.7076
562.5874
0.2000000 0.4000000 0.4000000
284.5682
353.4023
411.6848
454.2968
546.8168
563.1304
0.2000000 0.4000000 -0.5000000
286.2199
364.7334
424.3325
452.9382
528.2130
544.4677
0.3000000 0.3000000 0.0000000
293.2930
295.6615
425.5127
485.2396
491.1851
530.6993
0.3000000 0.3000000 0.1000000
280.7229
315.1991
423.7278
456.4458
512.6012
550.3094
0.3000000 0.3000000 0.2000000
280.7338
346.3074
388.7524
432.1362
543.2856
571.2672
0.3000000 0.3000000 0.3000000
312.0708
325.3112
392.0513
401.3859
567.2797
570.9428
0.3000000 0.3000000 0.4000000
285.8767
351.7784
378.8008
424.6943
551.1976
573.3812
0.3000000 0.3000000 -0.5000000
278.4396
323.1024
417.7927
449.3488
520.3291
557.6175
P = 2528.5900	V = 94.8736	E = -655.18084718000000	S_el = 0.00000900508667
0.0000000 0.0000000 0.0000000
0.0000
0.0000
0.0000
355.8878
355.8878
646.1467
0.0000000 0.0000000 0.1000000
87.0434
87.0434
190.5775
345.6758
345.6758
628.8398
0.0000000 0.0000000 0.2000000
165.0431
165.0431
311.4558
311.4558
357.3281
582.3597
0.0000000 0.0000000 0.3000000
236.0120
236.0120
253.9786
253.9786
482.4085
508.4122
0.0000000 0.0000000 0.4000000
184.6544
184.6544
297.9220
297.9220
395.4430
565.5153
0.0000000 0.0000000 -0.5000000
108.9734
108.9734
238.6952
339.0362
339.0362
618.8726
0.0000000 0.1000000 0.0000000
81.7598
95.5327
186.9213
367.7949
387.8955
637.0000
0.0000000 0.1000000 0.1000000
130.5544
140.6206
251.2648
358.2393
377.1831
621.6841
0.0000000 0.1000000 0.2000000
193.4832
208.1957
326.4856
342.7513
379.5276
580.1683
0.0000000 0.1000000 0.3000000
257.2404
271.4714
273.6478
288.0060
489.7379
513.2369
0.0000000 0.1000000 0.4000000
210.8322
225.3880
313.9975
329.5719
412.4304
564.9764
0.0000000 0.1000000 -0.5000000
146.7259
159.7281
284.3667
352.0520
370.3524
612.8328
0.0000000 0.2000000 0.0000000
160.9482
177.3178
345.1508
395.1350
457.1671
611.2992
0.0000000 0.2000000 0.1000000
193.1252
200.1285
377.5852
386.9812
442.9851
603.6003
0.0000000 0.2000000 0.2000000
249.0720
256.5755
360.1213
400.8354
449.9266
579.9558
0.0000000 0.2000000 0.3000000
302.1058
315.9314
323.2919
340.9287
520.4529
536.1936
0.0000000 0.2000000 0.4000000
263.2601
274.7135
349.6488
386.0481
470.1780
570.4080
0.0000000 0.2000000 -0.5000000
209.0259
211.9378
382.1046
394.3768
434.4568
598.9035
0.0000000 0.3000000 0.0000000
234.0290
235.6389
422.7323
455.7335
523.2268
574.2291
0.0000000 0.3000000 0.1000000
246.3386
253.9012
415.7398
475.4140
497.8671
587.8154
0.0000000 0.3000000 0.2000000
284.5124
295.8129
392.7299
433.7224
529.1219
594.4985
0.0000000 0.3000000 0.3000000
343.1903
344.9450
354.8641
364.0190
570.0098
578.1372
0.0000000 0.3000000 0.4000000
299.0547
308.4311
383.7496
415.7611
541.4235
592.3959
0.0000000 0.3000000 -0.5000000
253.9846
263.8168
411.2092
474.2045
497.2955
591.6085
0.0000000 0.4000000 0.0000000
267.2232
297.7413
442.1587
516.6910
531.8225
567.2418
0.0000000 0.4000000 0.1000000
283.6721
296.9704
435.4660
492.9175
542.4601
594.4452
0.0000000 0.4000000 0.2000000
308.4881
322.2316
413.9231
435.8286
581.0042
616.7146
0.0000000 0.4000000 0.3000000
351.9085
367.0104
368.1093
377.8112
609.5447
614.0958
0.0000000 0.4000000 0.4000000
316.6931
334.0933
405.9968
417.5025
590.2917
618.4360
0.0000000 0.4000000 -0.5000000
292.8145
297.6622
431.2047
479.2537
552.5212
602.5991
0.0000000 -0.5000000 0.0000000
279.1222
344.8826
451.9448
495.0488
542.1609
586.6047
0.0000000 -0.5000000 0.1000000
294.5672
334.8697
445.1526
475.3560
565.8874
605.8355
0.0000000 -0.5000000 0.2000000
327.1563
331.7219
424.2121
428.1698
604.1780
630.2845
0.0000000 -0.5000000 0.3000000
354.7966
368.9671
375.5912
387.0115
628.8346
632.1961
0.0000000 -0.5000000 0.4000000
330.2614
343.3841
412.9613
415.0325
612.5878
633.2253
0.0000000 -0.5000000 -0.5000000
303.0998
330.9855
440.8657
465.1692
576.5279
613.8089
0.1000000 0.1000000 0.0000000
115.0251
134.2796
255.5870
379.5218
413.8310
628.1418
0.1000000 0.1000000 0.1000000
161.0480
163.1546
301.8421
370.6126
402.2675
615.0542
0.1000000 0.1000000 0.2000000
217.2187
230.8488
340.6018
366.2662
403.6368
579.0173
0.1000000 0.1000000 0.3000000
275.5532
288.0675
297.7416
311.4986
498.8380
519.6734
0.1000000 0.1000000 0.4000000
233.0758
248.1529
329.1051
352.8529
431.4552
565.6264
0.1000000 0.1000000 -0.5000000
175.6249
181.2749
326.5068
364.9600
395.0104
607.4447
0.1000000 0.2000000 0.0000000
178.6681
210.4255
355.4316
422.9326
466.5287
603.1361
0.1000000 0.2000000 0.1000000
201.6080
230.5253
380.4069
422.5333
450.4568
598.3677
0.1000000 0.2000000 0.2000000
255.6906
274.5338
379.0542
405.8357
467.1886
580.6106
0.1000000 0.2000000 0.3000000
313.5208
316.4983
347.3986
350.5388
529.2422
543.1192
0.1000000 0.2000000 0.4000000
272.2530
287.3844
370.7692
390.5884
484.8339
572.7030
0.1000000 0.2000000 -0.5000000
214.2036
241.1026
387.2667
427.4051
441.0155
595.1516
0.1000000 0.3000000 0.0000000
244.6415
270.7354
415.2121
483.2277
521.6363
566.7500
0.1000000 0.3000000 0.1000000
248.6034
288.9089
423.4251
481.5095
502.8908
583.5416
0.1000000 0.3000000 0.2000000
275.6159
327.0546
410.5865
433.5172
534.3205
593.1518
0.1000000 0.3000000 0.3000000
327.3608
341.0866
384.0128
391.8663
571.6976
579.1590
0.1000000 0.3000000 0.4000000
287.7364
337.4646
400.1252
420.6540
545.3955
591.7029
0.1000000 0.3000000 -0.5000000
252.9868
298.1922
423.7447
471.3464
507.1808
588.2235
0.1000000 0.4000000 0.0000000
302.9929
305.0621
448.0150
522.1816
524.0658
564.9868
0.1000000 0.4000000 0.1000000
292.2731
325.7170
446.7046
488.3538
545.3196
588.8893
0.1000000 0.4000000 0.2000000
296.0585
359.8520
413.9613
454.1049
578.6662
611.2898
0.1000000 0.4000000 0.3000000
332.1042
346.3349
408.9282
418.8331
605.3741
609.6136
0.1000000 0.4000000 0.4000000
302.3371
367.6201
401.8837
445.1837
587.2807
613.2282
0.1000000 0.4000000 -0.5000000
290.9052
334.1493
442.0579
478.3331
553.5373
596.8929
0.2000000 0.2000000 0.0000000
221.9271
243.1176
404.8059
455.2819
507.4945
580.5552
0.2000000 0.2000000 0.1000000
232.8006
262.6576
411.3804
464.8748
486.1281
588.0148
0.2000000 0.2000000 0.2000000
271.0315
304.4785
396.2120
427.9893
514.0699
588.6991
0.2000000 0.2000000 0.3000000
326.8904
337.4472
365.6066
373.2129
558.5068
567.7965
0.2000000 0.2000000 0.4000000
285.2853
316.6504
387.4315
412.0070
527.0761
585.3128
0.2000000 0.2000000 -0.5000000
240.3766
272.7245
410.4801
464.4787
483.6672
589.9319
0.2000000 0.3000000 0.0000000
272.6303
314.9411
425.2599
518.4209
531.5348
545.6885
0.2000000 0.3000000 0.1000000
268.9596
329.6135
440.8885
483.0378
529.1439
577.6006
0.2000000 0.3000000 0.2000000
281.1777
359.4043
424.4251
446.9746
553.9653
595.9128
0.2000000 0.3000000 0.3000000
324.6379
339.6042
415.4126
423.0367
583.3721
588.9398
0.2000000 0.3000000 0.4000000
289.9642
363.9072
412.5218
442.1248
562.6799
596.4114
0.2000000 0.3000000 -0.5000000
269.4375
337.3119
445.2197
468.3228
533.6090
584.9523
0.2000000 0.4000000 0.0000000
321.2022
368.8792
452.4416
505.7273
534.4735
564.8118
0.2000000 0.4000000 0.1000000
307.5111
380.7103
463.6521
476.1424
561.4876
574.2988
0.2000000 0.4000000 0.2000000
298.4824
386.1412
433.7217
485.0968
579.1926
599.6844
0.2000000 0.4000000 0.3000000
323.2959
336.0162
458.0077
465.6998
598.9522
602.0091
0.2000000 0.4000000 0.4000000
301.2758
374.8650
437.6582
482.0394
585.2549
602.6880
0.2000000 0.4000000 -0.5000000
302.9191
386.0487
452.8283
480.7447
565.3820
582.5211
0.3000000 0.3000000 0.0000000
309.7193
313.1842
451.1498
519.1343
524.9094
567.6828
0.3000000 0.3000000 0.1000000
297.0218
333.9449
449.5208
486.9395
548.4467
589.1760
0.3000000 0.3000000 0.2000000
297.4798
366.6652
413.6468
459.0044
581.1577
611.7867
0.3000000 0.3000000 0.3000000
330.8945
344.8647
415.9889
425.7527
606.9605
610.9594
0.3000000 0.3000000 0.4000000
302.8943
372.3460
403.1228
450.9201
589.5290
613.9392
0.3000000 0.3000000 -0.5000000
294.7940
342.2497
443.7691
478.7534
556.6158
597.0572
P = 3025.9600	V = 91.2893	E = -655.11490108000000	S_el = 0.00000848687000
0.0000000 0.0000000 0.0000000
0.0000
0.0000
0.0000
372.6972
372.6972
686.9516
0.0000000 0.0000000 0.1000000
91.2491
91.2491
200.8733
362.0188
362.0188
667.9485
0.0000000 0.0000000 0.2000000
172.7838
172.7838
326.0859
326.0859
377.2059
617.2800
0.0000000 0.0000000 0.3000000
247.0151
247.0151
265.6846
265.6846
510.1539
537.6784
0.0000000 0.0000000 0.4000000
193.0859
193.0859
311.9967
311.9967
417.2703
599.2361
0.0000000 0.0000000 -0.5000000
113.9812
113.9812
251.2111
355.1329
355.1329
657.1493
0.0000000 0.1000000 0.0000000
85.5358
99.7349
196.9684
385.2385
406.4767
677.0530
0.0000000 0.1000000 0.1000000
136.5244
147.3001
264.9861
375.2151
395.2906
660.2527
0.0000000 0.1000000 0.2000000
202.3815
218.0182
341.8024
359.0705
400.6541
614.9564
0.0000000 0.1000000 0.3000000
269.1383
284.2015
286.2049
301.4047
517.8603
542.7695
0.0000000 0.1000000 0.4000000
220.3581
235.8070
328.7820
345.3167
435.2381
598.6519
0.0000000 0.1000000 -0.5000000
153.3032
167.1477
299.6104
368.7817
388.2045
650.6629
0.0000000 0.2000000 0.0000000
168.3580
185.3345
364.0569
414.1490
480.0227
649.2304
0.0000000 0.2000000 0.1000000
202.3297
209.2576
398.2012
405.6425
465.2616
640.6723
0.0000000 0.2000000 0.2000000
260.4720
268.9777
377.1191
420.7121
474.9676
614.5083
0.0000000 0.2000000 0.3000000
316.0858
330.4727
338.9858
357.3853
550.0722
566.8493
0.0000000 0.2000000 0.4000000
275.2017
287.7858
366.1612
405.2398
496.2356
604.1353
0.0000000 0.2000000 -0.5000000
218.9045
221.5040
400.3546
415.8924
456.4709
635.5100
0.0000000 0.3000000 0.0000000
244.8698
246.8012
443.5564
481.3499
551.2386
609.0857
0.0000000 0.3000000 0.1000000
258.2368
265.9611
436.1230
501.4120
525.5968
622.9166
0.0000000 0.3000000 0.2000000
298.6867
309.8090
411.6752
456.6304
559.0550
629.3742
0.0000000 0.3000000 0.3000000
359.5858
362.3517
371.5845
382.5620
602.4697
611.1629
0.0000000 0.3000000 0.4000000
313.8461
322.8899
402.2507
437.7159
571.9208
626.9414
0.0000000 0.3000000 -0.5000000
266.3332
276.2373
431.3549
499.5601
525.5749
626.7724
0.0000000 0.4000000 0.0000000
280.7719
311.7451
464.4977
546.6059
563.0729
600.1028
0.0000000 0.4000000 0.1000000
297.9956
311.7152
457.3910
520.7818
574.1054
629.6047
0.0000000 0.4000000 0.2000000
324.5215
338.2724
434.4529
459.8148
614.6549
653.2865
0.0000000 0.4000000 0.3000000
370.4722
385.3807
387.2657
396.3653
645.0553
649.9641
0.0000000 0.4000000 0.4000000
333.1092
350.5446
426.1181
440.4483
624.3991
654.9867
0.0000000 0.4000000 -0.5000000
307.4681
312.6960
452.9122
506.3093
584.5541
638.2822
0.0000000 -0.5000000 0.0000000
294.1377
361.5335
475.1613
523.1741
574.4533
622.5462
0.0000000 -0.5000000 0.1000000
310.2878
352.0723
468.0012
502.1609
599.2353
643.0166
0.0000000 -0.5000000 0.2000000
344.8784
349.0062
446.0084
451.6605
639.7225
668.7655
0.0000000 -0.5000000 0.3000000
374.0226
388.8622
394.7898
406.6542
666.3726
670.1027
0.0000000 -0.5000000 0.4000000
348.1340
361.0397
435.1261
436.8817
648.6460
671.7176
0.0000000 -0.5000000 -0.5000000
319.1027
348.3906
463.4870
491.4277
610.3161
651.4006
0.1000000 0.1000000 0.0000000
120.3282
140.2655
269.3777
397.6619
433.9177
667.4654
0.1000000 0.1000000 0.1000000
168.5227
170.7367
318.2831
388.3149
421.8495
653.1026
0.1000000 0.1000000 0.2000000
227.1593
241.7922
356.6041
383.9321
426.0970
613.6982
0.1000000 0.1000000 0.3000000
288.2518
301.3159
311.7950
326.1649
527.4068
549.5309
0.1000000 0.1000000 0.4000000
243.5943
259.7066
344.6110
369.9133
455.3355
599.2860
0.1000000 0.1000000 -0.5000000
183.5029
189.7146
344.0466
382.4732
414.3212
644.8465
0.1000000 0.2000000 0.0000000
186.8831
220.0803
373.9046
444.7318
489.9853
640.3952
0.1000000 0.2000000 0.1000000
211.1205
241.1676
399.3921
445.2265
473.2306
634.9660
0.1000000 0.2000000 0.2000000
267.8853
287.1931
397.0404
426.2232
493.3754
615.0993
0.1000000 0.2000000 0.3000000
328.1977
331.0708
364.1195
367.6983
559.3663
574.1592
0.1000000 0.2000000 0.4000000
285.0603
300.4968
388.4245
410.2505
511.8719
606.4650
0.1000000 0.2000000 -0.5000000
224.2443
252.1334
405.9689
450.8659
463.4931
631.3708
0.1000000 0.3000000 0.0000000
255.9400
283.5977
435.8977
510.1939
549.7414
601.0050
0.1000000 0.3000000 0.1000000
260.4428
302.7029
444.1551
507.5750
531.6068
618.2337
0.1000000 0.3000000 0.2000000
289.0250
342.5727
430.9233
456.1542
564.8730
627.9102
0.1000000 0.3000000 0.3000000
343.3574
357.4811
403.1926
411.1839
604.4093
612.3579
0.1000000 0.3000000 0.4000000
301.6289
353.3120
420.3842
442.2264
576.4147
626.1987
0.1000000 0.3000000 -0.5000000
265.0973
312.3376
444.4380
496.7781
536.2886
623.0535
0.1000000 0.4000000 0.0000000
317.4222
320.1619
470.6591
552.2557
554.6944
597.8070
0.1000000 0.4000000 0.1000000
306.5670
342.0821
469.2885
515.7529
577.2784
623.5963
0.1000000 0.4000000 0.2000000
310.9755
377.7319
435.8429
477.9069
612.3723
647.4270
0.1000000 0.4000000 0.3000000
348.9475
363.7710
429.9013
440.1625
640.6944
645.2334
0.1000000 0.4000000 0.4000000
317.5227
385.6619
423.3797
468.3120
621.3798
649.3804
0.1000000 0.4000000 -0.5000000
305.3022
350.8702
464.6888
504.8383
585.8503
632.1027
0.2000000 0.2000000 0.0000000
232.1546
254.5148
425.0623
480.2424
534.2153
615.9342
0.2000000 0.2000000 0.1000000
243.8648
275.0519
431.4084
490.3198
512.6193
623.3847
0.2000000 0.2000000 0.2000000
284.1545
318.8365
415.3389
450.2367
543.1591
623.3145
0.2000000 0.2000000 0.3000000
342.6539
353.3839
383.6909
391.6098
590.3020
600.2181
0.2000000 0.2000000 0.4000000
298.9612
331.4441
406.2618
433.3546
556.7501
619.5037
0.2000000 0.2000000 -0.5000000
251.8191
285.5051
430.3877
489.0941
510.9712
625.2227
0.2000000 0.3000000 0.0000000
285.2773
330.1174
446.6430
547.3513
561.2184
578.3001
0.2000000 0.3000000 0.1000000
281.8050
345.5164
462.7661
509.6652
559.9466
611.4808
0.2000000 0.3000000 0.2000000
294.9029
376.4812
447.3252
469.1891
586.1587
630.7631
0.2000000 0.3000000 0.3000000
340.6558
356.2268
436.3337
444.0668
617.0735
622.9611
0.2000000 0.3000000 0.4000000
304.0475
381.1325
434.7579
464.0615
595.1978
631.1819
0.2000000 0.3000000 -0.5000000
282.4135
353.4814
467.1684
494.2353
564.6950
619.2253
0.2000000 0.4000000 0.0000000
336.4080
387.3520
475.9061
534.8827
564.6209
597.8843
0.2000000 0.4000000 0.1000000
322.4777
399.6722
488.8186
501.5529
594.3952
607.8669
0.2000000 0.4000000 0.2000000
313.3481
405.3114
457.3498
509.9423
613.4103
634.8506
0.2000000 0.4000000 0.3000000
339.5598
352.8733
481.7183
489.6403
634.0631
637.2507
0.2000000 0.4000000 0.4000000
316.2640
393.8314
460.9245
506.7711
619.6889
637.9977
0.2000000 0.4000000 -0.5000000
317.8395
405.1236
478.1168
505.5759
598.7033
616.5054
0.3000000 0.3000000 0.0000000
324.3524
328.9118
474.0266
549.3605
555.1573
600.8598
0.3000000 0.3000000 0.1000000
311.5737
350.7921
472.4151
514.1834
580.6013
623.9737
0.3000000 0.3000000 0.2000000
312.4902
384.9039
435.7348
483.0049
615.0830
648.0130
0.3000000 0.3000000 0.3000000
347.6970
362.2636
437.4084
447.5274
642.4570
646.7406
0.3000000 0.3000000 0.4000000
318.1368
390.6739
424.8210
474.3501
623.8414
650.1966
0.3000000 0.3000000 -0.5000000
309.4163
359.4433
466.7672
505.0840
589.1491
632.3383
P = 5022.9500	V = 81.0010	E = -654.84326572000000	S_el = 0.00000713825000
0.0000000 0.0000000 0.0000000
0.0000
0.0000
0.0000
427.7785
427.7785
819.3893
0.0000000 0.0000000 0.1000000
107.3855
107.3855
233.7750
415.6793
415.6793
794.9886
0.0000000 0.0000000 0.2000000
200.4952
200.4952
374.2148
374.2148
441.3755
730.9049
0.0000000 0.0000000 0.3000000
284.0346
284.0346
304.6231
304.6231
600.4135
632.7988
0.0000000 0.0000000 0.4000000
222.6028
222.6028
358.4203
358.4203
487.6563
709.1352
0.0000000 0.0000000 -0.5000000
132.8955
132.8955
290.9757
408.0610
408.0610
781.6578
0.0000000 0.1000000 0.0000000
98.0702
114.0204
230.2554
442.2828
467.0917
807.0850
0.0000000 0.1000000 0.1000000
157.6456
169.5404
310.1179
430.8286
454.5231
785.6515
0.0000000 0.1000000 0.2000000
233.2176
251.3132
392.0694
412.5823
469.2956
728.3480
0.0000000 0.1000000 0.3000000
308.8140
326.3991
327.7340
345.5417
609.5169
638.9357
0.0000000 0.1000000 0.4000000
252.9141
270.8629
377.4112
397.0368
509.1485
708.5879
0.0000000 0.1000000 -0.5000000
176.5536
192.0904
349.2231
423.6633
446.7032
773.8547
0.0000000 0.2000000 0.0000000
192.6522
212.4944
426.6153
476.1279
554.3049
772.4244
0.0000000 0.2000000 0.1000000
232.3297
240.1835
465.9814
466.7838
537.8812
761.3873
0.0000000 0.2000000 0.2000000
298.3631
309.7579
432.6722
485.5176
557.0741
727.4371
0.0000000 0.2000000 0.3000000
362.1476
378.0999
390.2829
410.9855
646.9447
667.0106
0.0000000 0.2000000 0.4000000
314.9051
330.3987
420.2235
467.9022
581.4116
714.5064
0.0000000 0.2000000 -0.5000000
251.0204
253.7982
459.3987
487.1299
528.4259
754.9201
0.0000000 0.3000000 0.0000000
280.3244
284.0752
511.5751
565.5793
643.4400
721.4003
0.0000000 0.3000000 0.1000000
296.9734
306.3741
502.4678
586.3166
616.3956
737.4504
0.0000000 0.3000000 0.2000000
344.9714
356.1075
473.4355
530.9800
657.2230
743.3433
0.0000000 0.3000000 0.3000000
411.6523
420.7085
425.9004
443.1309
708.5894
719.0458
0.0000000 0.3000000 0.4000000
362.0067
370.5207
462.6683
509.1146
671.7314
739.8715
0.0000000 0.3000000 -0.5000000
306.5670
317.6540
496.9829
581.9525
618.5255
741.5871
0.0000000 0.4000000 0.0000000
326.5366
356.4088
537.0800
645.0427
664.3501
707.7934
0.0000000 0.4000000 0.1000000
345.9678
359.4008
528.6437
610.9918
678.0658
744.5017
0.0000000 0.4000000 0.2000000
376.8941
391.3520
501.3955
537.3075
724.6950
772.6081
0.0000000 0.4000000 0.3000000
430.8168
443.4167
451.5953
457.1216
760.8977
766.9070
0.0000000 0.4000000 0.4000000
386.6406
404.7935
490.8616
515.7235
735.7677
774.2093
0.0000000 0.4000000 -0.5000000
355.9475
361.8856
523.5142
593.9780
689.5939
754.7706
0.0000000 -0.5000000 0.0000000
344.8974
414.2743
550.5041
614.1292
680.7716
740.4944
0.0000000 -0.5000000 0.1000000
363.0445
407.2669
542.2679
588.6594
708.4767
764.7515
0.0000000 -0.5000000 0.2000000
402.4165
406.3810
514.6486
529.7236
755.5919
794.3332
0.0000000 -0.5000000 0.3000000
436.3337
453.1463
457.9812
471.0996
788.6273
793.5409
0.0000000 -0.5000000 0.4000000
406.1672
419.4525
505.3378
509.5569
766.0553
797.2361
0.0000000 -0.5000000 -0.5000000
372.5953
404.4808
537.1878
576.0787
720.7429
774.3056
0.1000000 0.1000000 0.0000000
137.8568
160.5502
315.0424
456.9220
499.2836
795.1551
0.1000000 0.1000000 0.1000000
192.9602
196.8583
372.5321
446.2645
485.7629
776.8929
0.1000000 0.1000000 0.2000000
260.9745
278.1008
409.0221
441.7307
499.4284
726.8813
0.1000000 0.1000000 0.3000000
330.3408
344.8801
358.0919
374.2221
620.6668
646.9031
0.1000000 0.1000000 0.4000000
279.0329
297.9028
395.5046
425.8108
533.0457
709.2996
0.1000000 0.1000000 -0.5000000
210.1022
217.9176
401.4734
439.9348
477.4676
766.7391
0.1000000 0.2000000 0.0000000
213.7656
252.4926
434.4973
516.4510
566.1268
761.4195
0.1000000 0.2000000 0.1000000
242.1723
276.8700
461.0356
520.3968
547.3124
754.1522
0.1000000 0.2000000 0.2000000
307.7033
329.2351
455.6922
492.6520
579.3119
727.8222
0.1000000 0.2000000 0.3000000
375.9968
378.8001
418.7123
423.8106
657.9326
675.6152
0.1000000 0.2000000 0.4000000
326.7777
343.8126
446.0781
474.4204
600.3543
716.9413
0.1000000 0.2000000 -0.5000000
256.9485
289.0285
466.7873
528.1851
536.8162
749.5198
0.1000000 0.3000000 0.0000000
292.4743
326.5436
503.4117
598.7822
642.3547
711.3803
0.1000000 0.3000000 0.1000000
299.0981
348.4921
511.6302
592.2187
625.9984
731.3749
0.1000000 0.3000000 0.2000000
332.9610
393.5848
496.5233
530.1369
665.1238
741.3673
0.1000000 0.3000000 0.3000000
395.3977
410.6231
465.8948
474.2698
711.3733
720.8009
0.1000000 0.3000000 0.4000000
347.0178
405.2159
485.7288
512.9951
678.0081
738.8524
0.1000000 0.3000000 -0.5000000
304.7014
359.1299
511.7610
579.2920
632.0257
736.6672
0.1000000 0.4000000 0.0000000
364.3846
369.7907
544.3698
649.6786
655.2626
705.4264
0.1000000 0.4000000 0.1000000
353.1496
396.1019
542.3833
604.6425
682.1511
736.9506
0.1000000 0.4000000 0.2000000
359.9112
436.4198
506.1891
555.5225
722.6432
765.1847
0.1000000 0.4000000 0.3000000
403.7787
420.2167
498.4951
509.7595
755.9366
761.3558
0.1000000 0.4000000 0.4000000
367.2672
444.5448
492.9377
543.7584
732.7878
767.1786
0.1000000 0.4000000 -0.5000000
352.3251
405.9829
537.4831
591.2828
691.7721
746.9341
0.2000000 0.2000000 0.0000000
265.3290
292.7614
491.1129
562.4871
621.2447
730.8343
0.2000000 0.2000000 0.1000000
279.9916
316.3791
496.6454
573.3860
599.4679
738.6797
0.2000000 0.2000000 0.2000000
327.0455
366.2038
477.5930
522.5480
638.6245
736.4233
0.2000000 0.2000000 0.3000000
393.9086
405.2258
442.7282
451.8002
694.3085
706.1723
0.2000000 0.2000000 0.4000000
343.5301
380.0458
467.5043
503.0113
653.9260
731.2957
0.2000000 0.2000000 -0.5000000
289.1806
327.9536
495.2120
569.1297
600.7692
740.3904
0.2000000 0.3000000 0.0000000
326.1035
380.3534
516.5091
642.0406
657.7145
684.9223
0.2000000 0.3000000 0.1000000
323.7175
397.9801
533.9870
595.7830
661.2850
721.8891
0.2000000 0.3000000 0.2000000
340.0298
432.3094
521.2847
541.5151
691.7742
744.2724
0.2000000 0.3000000 0.3000000
392.8237
410.0405
504.6293
512.5594
727.2243
734.0104
0.2000000 0.3000000 0.4000000
350.2434
437.0378
507.1208
535.4133
701.7213
744.4895
0.2000000 0.3000000 -0.5000000
324.8958
406.6846
538.1650
578.4780
666.8827
730.8174
0.2000000 0.4000000 0.0000000
385.4009
448.1083
552.5819
629.5547
663.0313
706.4340
0.2000000 0.4000000 0.1000000
371.0806
461.8794
568.9374
585.2751
702.0573
717.4120
0.2000000 0.4000000 0.2000000
362.1938
466.4645
534.6309
590.5836
725.4261
749.0623
0.2000000 0.4000000 0.3000000
392.6238
407.4519
558.9448
567.4770
748.6261
752.0773
0.2000000 0.4000000 0.4000000
365.5315
454.4220
537.0782
587.0671
732.3042
752.7163
0.2000000 0.4000000 -0.5000000
366.4801
467.5596
559.4068
586.4548
707.8225
727.0289
0.3000000 0.3000000 0.0000000
371.9414
380.5534
548.4973
647.3874
654.3577
709.6657
0.3000000 0.3000000 0.1000000
358.9526
406.3575
546.2478
602.7928
686.0411
737.6471
0.3000000 0.3000000 0.2000000
361.7292
444.7042
506.7709
561.1798
726.0320
766.0322
0.3000000 0.3000000 0.3000000
402.4069
418.5894
507.4270
518.5432
758.2513
763.3661
0.3000000 0.3000000 0.4000000
368.0819
450.2015
495.2879
550.7013
735.9164
768.3047
0.3000000 0.3000000 -0.5000000
357.1461
416.0642
540.5172
591.1219
695.7258
747.4064
weight
   0.0000000   0.0000000   0.0000000   0.0020000
   0.0000000   0.0000000   0.1000000   0.0040000
   0.0000000   0.0000000   0.2000000   0.0040000
   0.0000000   0.0000000   0.3000000   0.0040000
   0.0000000   0.0000000   0.4000000   0.0040000
   0.0000000   0.0000000  -0.5000000   0.0020000
   0.0000000   0.1000000   0.0000000   0.0120000
   0.0000000   0.1000000   0.1000000   0.0240000
   0.0000000   0.1000000   0.2000000   0.0240000
   0.0000000   0.1000000   0.3000000   0.0240000
   0.0000000   0.1000000   0.4000000   0.0240000
   0.0000000   0.1000000  -0.5000000   0.0120000
   0.0000000   0.2000000   0.0000000   0.0120000
   0.0000000   0.2000000   0.1000000   0.0240000
   0.0000000   0.2000000   0.2000000   0.0240000
   0.0000000   0.2000000   0.3000000   0.0240000
   0.0000000   0.2000000   0.4000000   0.0240000
   0.0000000   0.2000000  -0.5000000   0.0120000
   0.0000000   0.3000000   0.0000000   0.0120000
   0.0000000   0.3000000   0.1000000   0.0240000
   0.0000000   0.3000000   0.2000000   0.0240000
   0.0000000   0.3000000   0.3000000   0.0240000
   0.0000000   0.3000000   0.4000000   0.0240000
   0.0000000   0.3000000  -0.5000000   0.0120000
   0.0000000   0.4000000   0.0000000   0.0120000
   0.0000000   0.4000000   0.1000000   0.0240000
   0.0000000   0.4000000   0.2000000   0.0240000
   0.0000000   0.4000000   0.3000000   0.0240000
   0.0000000   0.4000000   0.4000000   0.0240000
   0.0000000   0.4000000  -0.5000000   0.0120000
   0.0000000  -0.5000000   0.0000000   0.0060000
   0.0000000  -0.5000000   0.1000000   0.0120000
   0.0000000  -0.5000000   0.2000000   0.0120000
   0.0000000  -0.5000000   0.3000000   0.0120000
   0.0000000  -0.5000000   0.4000000   0.0120000
   0.0000000  -0.5000000  -0.5000000   0.0060000
   0.1000000   0.1000000   0.0000000   0.0120000
   0.1000000   0.1000000   0.1000000   0.0240000
   0.1000000   0.1000000   0.2000000   0.0240000
   0.1000000   0.1000000   0.3000000   0.0240000
   0.1000000   0.1000000   0.4000000   0.0240000
   0.1000000   0.1000000  -0.5000000   0.0120000
   0.1000000   0.2000000   0.0000000   0.0240000
   0.1000000   0.2000000   0.1000000   0.0480000
   0.1000000   0.2000000   0.2000000   0.0480000
   0.1000000   0.2000000   0.3000000   0.0480000
   0.1000000   0.2000000   0.4000000   0.0480000
   0.1000000   0.2000000  -0.5000000   0.0240000
   0.1000000   0.3000000   0.0000000   0.0240000
   0.1000000   0.3000000   0.1000000   0.0480000
   0.1000000   0.3000000   0.2000000   0.0480000
   0.1000000   0.3000000   0.3000000   0.0480000
   0.1000000   0.3000000   0.4000000   0.0480000
   0.1000000   0.3000000  -0.5000000   0.0240000
   0.1000000   0.4000000   0.0000000   0.0240000
   0.1000000   0.4000000   0.1000000   0.0480000
   0.1000000   0.4000000   0.2000000   0.0480000
   0.1000000   0.4000000   0.3000000   0.0480000
   0.1000000   0.4000000   0.4000000   0.0480000
   0.1000000   0.4000000  -0.5000000   0.0240000
   0.2000000   0.2000000   0.0000000   0.0120000
   0.2000000   0.2000000   0.1000000   0.0240000
   0.2000000   0.2000000   0.2000000   0.0240000
   0.2000000   0.2000000   0.3000000   0.0240000
   0.2000000   0.2000000   0.4000000   0.0240000
   0.2000000   0.2000000  -0.5000000   0.0120000
   0.2000000   0.3000000   0.0000000   0.0240000
   0.2000000   0.3000000   0.1000000   0.0480000
   0.2000000   0.3000000   0.2000000   0.0480000
   0.2000000   0.3000000   0.3000000   0.0480000
   0.2000000   0.3000000   0.4000000   0.0480000
   0.2000000   0.3000000  -0.5000000   0.0240000
   0.2000000   0.4000000   0.0000000   0.0120000
   0.2000000   0.4000000   0.1000000   0.0240000
   0.2000000   0.4000000   0.2000000   0.0240000
   0.2000000   0.4000000   0.3000000   0.0240000
   0.2000000   0.4000000   0.4000000   0.0240000
   0.2000000   0.4000000  -0.5000000   0.0120000
   0.3000000   0.3000000   0.0000000   0.0120000
   0.3000000   0.3000000   0.1000000   0.0240000
   0.3000000   0.3000000   0.2000000   0.0240000
   0.3000000   0.3000000   0.3000000   0.0240000
   0.3000000   0.3000000   0.4000000   0.0240000
   0.3000000   0.3000000  -0.5000000   0.0120000