Number of volumes (nv), q-vectors (nq), normal mode (np), formula units(nm)
10 84 6 1

P	=	-0.35	V	=	138.4189	E	=	-655.45795742
0.0 0.0 0.0
0.0
0.0
0.0
236.0109
236.0109
323.9871
0.0 0.0 0.1
-133.4649
-133.4649
-107.7805
177.2338
177.2338
264.7127
0.0 0.0 0.2
-117.3883
-117.3883
116.4001
130.7503
130.7503
224.7379
0.0 0.0 0.3
148.9349
148.9349
163.4391
163.4391
256.8489
264.83
0.0 0.0 0.4
-43.5908
-43.5908
145.3814
145.3814
181.4428
239.9185
0.0 0.0 -0.5
-150.3255
-150.3255
-105.2099
148.0757
148.0757
237.6913
0.0 0.1 0.0
-86.0412
-2.6568
45.3712
230.1048
233.7422
301.0118
0.0 0.1 0.1
-147.3442
-124.2278
-96.4596
175.4649
180.8119
246.4288
0.0 0.1 0.2
-118.8769
-102.9837
99.1433
125.0479
139.1967
212.8084
0.0 0.1 0.3
137.1426
151.0889
151.5682
164.9542
238.6686
247.6446
0.0 0.1 0.4
-54.9444
21.2601
136.4478
150.9294
163.9063
226.7451
0.0 0.1 -0.5
-156.599
-139.177
-100.0409
147.2188
155.1378
222.3859
0.0 0.2 0.0
-140.1994
39.5764
98.8618
220.8538
230.5563
245.1143
0.0 0.2 0.1
-177.7473
-96.0188
56.4853
163.2673
189.2977
212.926
0.0 0.2 0.2
-151.7373
-53.6063
91.8756
123.8401
157.1808
202.5195
0.0 0.2 0.3
82.9251
104.7313
159.5909
171.6327
218.0346
226.5299
0.0 0.2 0.4
-112.6938
80.9536
97.7905
162.4429
164.2959
213.4463
0.0 0.2 -0.5
-183.475
-107.2941
53.87
130.617
170.103
201.0142
0.0 0.3 0.0
-133.6813
84.7329
158.386
195.2733
225.1278
233.5938
0.0 0.3 0.1
-173.1107
-40.8109
133.1329
146.6399
198.7924
211.5288
0.0 0.3 0.2
-163.0819
57.4315
72.321
173.6992
177.2488
215.7047
0.0 0.3 0.3
-31.3423
57.6077
176.0909
185.9826
233.9345
238.8236
0.0 0.3 0.4
-135.4847
61.6516
117.8446
179.7579
199.1672
226.0785
0.0 0.3 -0.5
-181.7402
-57.2519
101.4076
146.4114
183.2442
206.9552
0.0 0.4 0.0
66.5029
126.907
192.1386
213.5357
244.814
245.7106
0.0 0.4 0.1
-107.7635
65.5409
142.8689
198.3483
207.3225
227.9765
0.0 0.4 0.2
-119.6166
99.9473
103.6229
184.9534
221.1857
239.7268
0.0 0.4 0.3
102.3223
120.7381
195.9946
204.8525
269.9222
272.4385
0.0 0.4 0.4
-82.4919
113.5371
139.7619
193.8929
240.1991
253.5859
0.0 0.4 -0.5
-130.2383
39.9803
119.1494
191.2271
196.9933
224.4387
0.0 -0.5 0.0
154.4866
180.8604
213.2326
251.6546
256.9401
265.7376
0.0 -0.5 0.1
85.0919
101.4876
168.9114
213.5701
230.6555
243.5768
0.0 -0.5 0.2
42.321
105.3912
150.4508
191.3997
248.3208
263.0563
0.0 -0.5 0.3
170.8037
181.9044
210.9342
219.9291
301.0956
303.5728
0.0 -0.5 0.4
99.4485
149.075
165.4587
203.8877
268.5181
280.4934
0.0 -0.5 -0.5
43.2875
52.846
150.7262
195.3027
226.4452
240.6779
0.1 0.1 0.0
-114.2135
13.1126
67.045
225.9061
231.8666
280.1296
0.1 0.1 0.1
-161.716
-115.1387
-71.3045
173.0934
183.7911
231.2702
0.1 0.1 0.2
-129.5458
-88.1619
100.1004
116.0363
146.0795
205.7538
0.1 0.1 0.3
122.1338
137.5574
153.366
166.5727
226.6429
235.9782
0.1 0.1 0.4
-76.208
50.8916
125.0886
154.8054
157.5042
218.5298
0.1 0.1 -0.5
-168.2716
-128.4025
-76.8625
144.1002
160.866
211.1083
0.1 0.2 0.0
-148.5958
37.4335
114.3511
221.5754
228.0697
228.949
0.1 0.2 0.1
-182.7554
-88.2812
84.2736
155.9542
190.1767
208.7765
0.1 0.2 0.2
-160.0154
-31.1727
78.4728
135.6173
160.106
203.1116
0.1 0.2 0.3
58.1817
87.1432
159.8134
171.3198
217.9134
225.5899
0.1 0.2 0.4
-125.4788
82.8348
89.1761
165.6985
168.7661
213.4619
0.1 0.2 -0.5
-188.3237
-97.6177
83.1837
121.7908
172.6307
199.6325
0.1 0.3 0.0
-140.0942
79.6774
163.7231
181.2191
227.4753
232.3413
0.1 0.3 0.1
-175.562
-27.5388
123.5308
149.5609
200.5671
211.8882
0.1 0.3 0.2
-166.3006
38.0994
81.1035
169.102
186.0874
216.1717
0.1 0.3 0.3
-56.5315
32.3977
173.3727
182.5807
235.559
239.7988
0.1 0.3 0.4
-140.9319
42.7657
120.5063
176.9359
203.8208
226.5869
0.1 0.3 -0.5
-183.5313
-42.2345
90.2651
149.2377
186.7883
207.2313
0.1 0.4 0.0
-25.8429
121.6146
173.1309
203.4092
243.3243
249.8346
0.1 0.4 0.1
-121.3654
72.9088
126.7476
184.4241
217.1782
225.5875
0.1 0.4 0.2
-128.874
82.2449
110.174
181.3906
221.1034
235.0997
0.1 0.4 0.3
79.0923
100.5401
192.2588
200.0258
265.6654
267.659
0.1 0.4 0.4
-98.3546
93.7457
143.1235
189.9689
238.1786
248.6546
0.1 0.4 -0.5
-139.1747
57.9386
103.2054
178.3892
207.4501
221.0069
0.2 0.2 0.0
-146.6345
68.7276
147.4203
197.1747
223.3679
230.5844
0.2 0.2 0.1
-180.9552
-56.1788
129.559
137.0179
196.5154
209.0949
0.2 0.2 0.2
-167.4389
50.0742
63.547
163.8945
172.8746
211.0378
0.2 0.2 0.3
-44.6611
48.0574
169.5719
179.6618
227.6489
233.1036
0.2 0.2 0.4
-139.8087
53.6565
111.0897
174.3501
191.0818
221.0475
0.2 0.2 -0.5
-187.9866
-66.6266
100.373
132.4529
181.2978
203.7003
0.2 0.3 0.0
-130.4941
91.3371
159.6261
176.4639
233.385
237.8736
0.2 0.3 0.1
-166.7554
49.6871
107.2716
160.6898
209.7807
215.453
0.2 0.3 0.2
-161.563
12.366
100.0023
170.184
202.7702
221.4269
0.2 0.3 0.3
-62.4909
7.7718
176.8079
184.5689
245.0937
247.9314
0.2 0.3 0.4
-138.4709
26.2775
131.5125
177.9508
217.9936
232.6725
0.2 0.3 -0.5
-175.5437
42.6827
74.9161
158.4534
198.4509
210.9132
0.2 0.4 0.0
-81.4563
122.5358
135.4743
188.6935
240.3605
258.113
0.2 0.4 0.1
-132.901
85.2536
99.0737
169.931
219.2595
230.4886
0.2 0.4 0.2
-135.7481
30.3889
127.7026
175.2526
223.8419
228.5461
0.2 0.4 0.3
24.0664
60.7612
189.7372
195.155
260.5761
261.6572
0.2 0.4 0.4
-112.1811
49.8744
152.418
184.5061
237.2199
241.9994
0.2 0.4 -0.5
-145.5796
57.6783
93.7982
165.627
214.3324
220.0716
0.3 0.3 0.0
28.825
124.4622
170.6743
204.825
244.3264
252.8383
0.3 0.3 0.1
-115.3161
77.4803
125.6012
184.9173
219.524
227.0016
0.3 0.3 0.2
-124.6322
83.4385
113.5578
181.8505
223.7612
236.128
0.3 0.3 0.3
83.7096
103.7442
193.5633
201.0721
267.7529
269.5519
0.3 0.3 0.4
-93.3521
95.719
145.4875
190.639
240.6036
249.9771
0.3 0.3 -0.5
-134.2875
63.2517
103.0933
178.5141
210.4478
221.8558
P	=	199.77	V	=	130.1411	E	=	-655.45263686
0.0 0.0 0.0
-0.0
-0.0
0.0
256.8721
256.8721
372.4991
0.0 0.0 0.1
-132.5639
-132.5639
-102.1225
200.2436
200.2436
315.9521
0.0 0.0 0.2
-106.9598
-106.9598
146.5742
154.4994
154.4994
273.261
0.0 0.0 0.3
165.4111
165.4111
179.8275
179.8275
288.7589
299.3787
0.0 0.0 0.4
32.1731
32.1731
165.7117
165.7117
208.2544
283.2415
0.0 0.0 -0.5
-147.9649
-147.9649
-92.9387
173.4832
173.4832
290.8323
0.0 0.1 0.0
-85.0463
22.8694
65.7209
253.9993
255.5335
350.8244
0.0 0.1 0.1
-145.9991
-120.7408
-74.8724
202.8216
204.8711
299.5395
0.0 0.1 0.2
-105.3143
-87.8826
138.1249
155.2157
163.7815
263.109
0.0 0.1 0.3
157.1978
168.579
171.5697
182.4344
273.1037
284.4061
0.0 0.1 0.4
25.9326
62.3944
162.3808
172.4318
195.562
272.0327
0.0 0.1 -0.5
-153.4381
-134.3827
-72.274
177.9241
181.3482
277.3651
0.0 0.2 0.0
-136.9478
59.1021
133.269
252.6466
254.6773
298.6042
0.0 0.2 0.1
-174.505
-82.4565
114.1497
205.4372
215.8707
266.9886
0.0 0.2 0.2
-139.0085
37.7221
144.3067
171.2307
183.9159
254.0666
0.0 0.2 0.3
118.496
138.2454
179.449
191.6897
258.412
268.1686
0.0 0.2 0.4
-90.6038
106.4447
143.1901
188.4718
204.0075
261.418
0.0 0.2 -0.5
-178.94
-92.9969
117.4952
179.7941
198.3972
255.7744
0.0 0.3 0.0
-123.5559
104.383
199.6124
250.9931
260.1748
265.3487
0.0 0.3 0.1
-165.3253
50.9745
189.8923
198.6679
228.1048
262.5315
0.0 0.3 0.2
-149.3069
105.982
131.3701
203.0612
227.6313
268.9284
0.0 0.3 0.3
81.661
110.274
198.2926
208.6285
279.4713
284.9816
0.0 0.3 0.4
-115.7952
126.7384
142.5471
206.6833
246.5248
276.7201
0.0 0.3 -0.5
-173.4309
37.4944
167.664
198.7443
214.1377
260.5597
0.0 0.4 0.0
99.176
146.5841
240.1846
256.8093
272.8094
290.796
0.0 0.4 0.1
-82.316
100.1367
195.87
238.6278
248.3815
280.3563
0.0 0.4 0.2
-94.016
131.6715
156.217
216.5941
272.9474
294.0701
0.0 0.4 0.3
136.7662
154.5502
219.7421
229.1953
317.6728
320.6112
0.0 0.4 0.4
-30.4143
158.4998
165.3152
222.7987
289.6424
305.4085
0.0 0.4 -0.5
-109.834
87.7276
176.0295
224.3998
249.273
279.2629
0.0 -0.5 0.0
174.2682
203.94
250.0778
285.304
294.7705
312.7934
0.0 -0.5 0.1
117.4049
132.4406
211.4312
245.8123
279.3916
296.2679
0.0 -0.5 0.2
92.8866
138.3787
190.5971
224.4281
299.5663
316.0673
0.0 -0.5 0.3
196.0251
208.1154
235.4393
245.0832
348.8106
351.4669
0.0 -0.5 0.4
130.1887
175.3892
199.8626
233.8272
317.7576
331.0715
0.0 -0.5 -0.5
94.2825
98.1371
195.7507
229.8307
277.4038
295.0842
0.1 0.1 0.0
-112.542
35.0825
93.7816
252.5526
254.6231
331.2458
0.1 0.1 0.1
-159.8056
-108.592
28.6361
204.7664
208.9347
285.6902
0.1 0.1 0.2
-115.9503
-65.8534
144.3263
153.2015
171.6063
256.8616
0.1 0.1 0.3
146.0971
161.3843
171.9424
185.1658
263.39
274.6563
0.1 0.1 0.4
-41.7237
80.9262
157.0666
178.264
192.7357
265.056
0.1 0.1 -0.5
-164.7639
-120.6939
32.7966
180.4265
187.9938
266.9217
0.1 0.2 0.0
-144.6125
63.8208
148.9155
254.1941
254.5247
283.742
0.1 0.2 0.1
-178.981
-66.7526
134.4195
203.3169
219.2452
260.907
0.1 0.2 0.2
-148.1488
65.0725
138.1292
181.7131
190.3374
254.3258
0.1 0.2 0.3
102.548
125.6051
181.8903
193.5093
259.2782
268.0079
0.1 0.2 0.4
-106.4816
115.712
135.6706
192.156
211.4411
261.5355
0.1 0.2 -0.5
-183.4692
-75.5607
137.6102
176.4766
203.5135
252.9332
0.1 0.3 0.0
-129.586
105.577
201.842
238.5863
263.3194
267.224
0.1 0.3 0.1
-167.3826
69.6887
185.6892
195.1914
236.0803
261.1842
0.1 0.3 0.2
-153.2678
114.7496
126.7882
203.594
234.2756
268.492
0.1 0.3 0.3
63.8596
97.4258
199.2374
208.7027
280.8951
285.677
0.1 0.3 0.4
-123.0631
116.4741
150.5153
207.5898
250.7026
276.5405
0.1 0.3 -0.5
-175.0274
65.7853
161.0335
195.7024
225.4516
259.4242
0.1 0.4 0.0
69.1844
146.3776
223.8004
241.2048
280.8533
292.0568
0.1 0.4 0.1
-99.5039
112.6066
183.2663
225.6372
260.0175
277.0678
0.1 0.4 0.2
-107.0476
134.6342
151.6897
217.8321
272.0175
288.8526
0.1 0.4 0.3
117.2765
136.2931
220.5367
228.6832
313.1655
315.5538
0.1 0.4 0.4
-65.0337
140.8007
175.0613
223.362
287.2371
300.0069
0.1 0.4 -0.5
-120.6719
105.9693
164.0371
219.2892
255.1801
275.0375
0.2 0.2 0.0
-139.0495
92.4312
185.9122
253.8377
258.5786
261.5158
0.2 0.2 0.1
-174.6205
36.8548
178.5378
194.3402
228.0509
258.9928
0.2 0.2 0.2
-154.9909
101.254
128.0926
198.7043
217.9495
263.2221
0.2 0.2 0.3
73.3618
104.2249
193.1908
203.5561
272.018
278.1446
0.2 0.2 0.4
-121.9744
121.2323
138.9997
202.6591
237.0374
270.6631
0.2 0.2 -0.5
-180.9795
23.342
166.7408
182.4764
214.9205
256.2255
0.2 0.3 0.0
-115.1718
121.6667
212.4493
218.1392
273.0087
275.6966
0.2 0.3 0.1
-155.6727
100.0603
173.9441
202.9797
251.9023
263.7709
0.2 0.3 0.2
-147.4419
112.6759
142.6652
208.4097
251.7875
273.309
0.2 0.3 0.3
55.3247
90.0893
207.0016
214.9166
291.0554
294.2835
0.2 0.3 0.4
-120.1215
109.0939
166.2254
212.9027
265.4897
282.4413
0.2 0.3 -0.5
-164.707
99.5135
151.4103
201.9645
243.7425
262.1991
0.2 0.4 0.0
-26.6519
155.6266
191.8779
225.4276
281.5609
301.0042
0.2 0.4 0.1
-111.0118
136.2558
159.6932
213.7464
267.0832
277.734
0.2 0.4 0.2
-115.2425
110.325
172.9681
219.0979
273.9812
280.4568
0.2 0.4 0.3
85.1982
105.7506
225.5222
231.1048
307.535
308.8176
0.2 0.4 0.4
-85.8464
111.6999
192.3568
225.1551
285.8503
291.8817
0.2 0.4 -0.5
-126.4196
127.1869
149.9244
211.742
264.5989
270.0184
0.3 0.3 0.0
81.219
150.0178
220.7788
242.1918
282.8429
295.2674
0.3 0.3 0.1
-90.7873
117.4725
181.5843
226.1241
263.2062
278.3559
0.3 0.3 0.2
-101.5249
135.3809
155.0314
219.2805
274.6369
289.8423
0.3 0.3 0.3
120.14
138.2668
222.7741
230.6427
315.3145
317.4952
0.3 0.3 0.4
-56.9116
141.3876
178.4446
224.9798
289.689
301.2986
0.3 0.3 -0.5
-114.1847
111.0546
163.0568
219.9552
258.4297
275.8755
P	=	499.77	V	=	121.3918	E	=	-655.43235858
0.0 0.0 0.0
-0.0
-0.0
0.0
279.8565
279.8565
430.9147
0.0 0.0 0.1
-130.577
-130.577
-88.8194
227.1846
227.1846
376.3687
0.0 0.0 0.2
-92.1142
-92.1142
183.8232
183.8232
184.5332
330.1719
0.0 0.0 0.3
184.1489
184.1489
199.3944
199.3944
329.5289
342.8027
0.0 0.0 0.4
68.704
68.704
191.4904
191.4904
243.8074
335.6413
0.0 0.0 -0.5
-144.3021
-144.3021
-63.6668
203.432
203.432
352.45
0.0 0.1 0.0
-79.5491
39.0283
87.344
280.5518
281.2228
410.6297
0.0 0.1 0.1
-140.6347
-114.4004
7.2917
233.4004
234.6408
361.6655
0.0 0.1 0.2
-80.7828
-61.9526
182.062
190.2908
193.9823
321.8615
0.0 0.1 0.3
181.076
189.4503
196.0376
204.0008
316.6022
330.3015
0.0 0.1 0.4
77.4228
92.3589
193.8387
199.6044
235.4663
326.5159
0.0 0.1 -0.5
-145.8794
-126.6946
46.1045
212.3747
213.0148
340.658
0.0 0.2 0.0
-124.5508
83.1808
171.1957
284.3551
290.2394
361.8565
0.0 0.2 0.1
-164.39
-54.3293
164.6894
247.9969
250.3881
331.1325
0.0 0.2 0.2
-112.0486
87.0667
195.4972
216.3451
221.9036
314.5077
0.0 0.2 0.3
158.9498
177.6481
204.7573
217.5167
307.5793
318.9663
0.0 0.2 0.4
-18.5102
135.2114
190.7676
218.712
252.0052
318.7211
0.0 0.2 -0.5
-167.2956
-65.9469
171.1646
229.3832
232.0526
320.016
0.0 0.3 0.0
-94.8039
130.0892
246.5478
293.9338
313.2501
315.572
0.0 0.3 0.1
-146.6937
94.6138
245.459
257.1385
263.7253
322.81
0.0 0.3 0.2
-119.6491
140.6787
194.2884
238.1295
283.4295
330.2771
0.0 0.3 0.3
139.8521
163.0182
226.8854
237.8018
333.7007
340.1156
0.0 0.3 0.4
-65.8528
172.3223
186.1921
239.8189
300.8177
336.0765
0.0 0.3 -0.5
-154.9996
90.3044
230.6011
250.7776
254.6148
322.4435
0.0 0.4 0.0
139.4317
171.2742
297.681
307.0642
308.0575
344.4256
0.0 0.4 0.1
40.7413
134.3177
254.0787
276.3686
304.4491
340.8406
0.0 0.4 0.2
21.5715
165.5227
211.5325
253.8424
331.5779
356.4796
0.0 0.4 0.3
179.7065
197.2195
249.2691
259.5253
374.4712
377.9728
0.0 0.4 0.4
95.9543
195.4468
209.321
257.7133
346.9868
365.99
0.0 0.4 -0.5
-60.9424
126.7122
235.5446
263.3983
307.2028
341.7011
0.0 -0.5 0.0
197.7017
233.56
297.3016
320.2691
345.5323
368.3833
0.0 -0.5 0.1
149.9536
168.8514
261.196
284.3007
335.3654
357.1757
0.0 -0.5 0.2
138.9957
172.4091
236.6509
262.9146
358.7397
377.8486
0.0 -0.5 0.3
229.5963
242.5431
264.6681
275.3057
405.9437
408.9031
0.0 -0.5 0.4
167.9137
205.2515
241.567
269.4497
375.6712
391.0068
0.0 -0.5 -0.5
136.5061
139.6291
246.52
270.0967
335.4358
357.5021
0.1 0.1 0.0
-104.5239
56.3297
122.7425
281.5428
283.5284
392.3558
0.1 0.1 0.1
-152.6624
-96.7791
97.3763
239.0051
240.936
349.1229
0.1 0.1 0.2
-88.6129
21.3607
191.512
193.8338
202.8043
316.671
0.1 0.1 0.3
175.1135
190.41
195.0465
208.5913
309.1742
322.5631
0.1 0.1 0.4
68.6829
110.0207
194.0245
206.8592
236.0263
320.9236
0.1 0.1 -0.5
-155.5173
-107.9091
106.1291
220.0312
220.4138
331.2476
0.1 0.2 0.0
-130.4488
92.8655
187.695
286.8339
293.7087
348.0644
0.1 0.2 0.1
-167.8104
26.4716
183.1863
251.6352
254.6079
324.285
0.1 0.2 0.2
-122.9585
108.2189
193.0234
222.0194
236.1689
314.5657
0.1 0.2 0.3
148.1123
168.6088
210.2151
222.0732
309.4524
319.6294
0.1 0.2 0.4
-58.3733
146.9845
187.0163
224.8614
260.71
318.9972
0.1 0.2 -0.5
-171.2109
-7.4522
189.0047
229.5498
240.5042
316.2856
0.1 0.3 0.0
-100.4717
136.5908
245.0838
302.8872
304.2855
315.0307
0.1 0.3 0.1
-148.1774
114.3513
241.7735
248.6839
280.7571
320.0536
0.1 0.3 0.2
-125.4749
155.1732
189.5392
242.8133
289.5422
329.1809
0.1 0.3 0.3
128.1879
152.5842
232.1634
241.9112
335.1672
340.7561
0.1 0.3 0.4
-80.0906
172.5576
189.9417
244.6353
304.9874
335.4177
0.1 0.3 -0.5
-156.4008
114.2709
225.869
242.1859
274.0561
320.2115
0.1 0.4 0.0
120.7629
176.126
283.3271
283.963
326.203
344.9711
0.1 0.4 0.1
-38.2503
151.7711
243.0371
270.3897
312.5622
336.727
0.1 0.4 0.2
-51.3219
178.9176
203.1399
260.1891
330.1858
350.7422
0.1 0.4 0.3
162.1514
179.853
255.5498
264.1882
369.8731
372.7844
0.1 0.4 0.4
72.6032
189.6138
214.0432
263.3396
344.3846
360.198
0.1 0.4 -0.5
-79.6418
148.795
224.7461
264.2135
311.0983
336.7466
0.2 0.2 0.0
-116.8153
121.3766
229.5259
294.3046
307.0635
319.3192
0.2 0.2 0.1
-158.7438
90.0143
228.5102
252.5965
267.4902
319.2084
0.2 0.2 0.2
-128.3968
138.8655
190.8375
235.5835
272.0485
323.8694
0.2 0.2 0.3
133.1916
157.0467
223.5557
234.2673
325.1716
332.2932
0.2 0.2 0.4
-79.0968
167.7068
183.9883
237.2604
290.0039
329.2446
0.2 0.2 -0.5
-164.926
88.0884
228.3184
232.8793
257.1585
317.7461
0.2 0.3 0.0
-72.6611
156.7211
253.8418
284.0841
320.0819
323.872
0.2 0.3 0.1
-131.0649
144.3802
239.1651
248.7982
302.6406
321.1663
0.2 0.3 0.2
-117.3017
169.4189
193.9389
251.944
308.0012
333.5856
0.2 0.3 0.3
122.7484
146.4873
244.5776
252.6557
346.2123
350.0275
0.2 0.3 0.4
-75.2606
168.4618
207.9711
254.357
320.8722
341.1917
0.2 0.3 -0.5
-141.9459
146.0523
218.5921
248.4371
297.0799
321.8766
0.2 0.4 0.0
99.3388
193.5421
254.8575
268.2763
331.7536
352.8886
0.2 0.4 0.1
-56.0232
182.5203
223.2764
262.5304
323.2482
333.2835
0.2 0.4 0.2
-66.1187
169.4515
222.2704
268.5268
331.801
340.7094
0.2 0.4 0.3
137.2471
154.2227
268.4967
274.357
363.9655
365.5728
0.2 0.4 0.4
43.945
166.9413
238.1176
272.3811
342.871
350.7995
0.2 0.4 -0.5
-84.55
179.874
210.8149
262.3162
322.1846
328.1753
0.3 0.3 0.0
129.4338
180.4749
279.7359
284.7322
329.2844
348.2085
0.3 0.3 0.1
21.2603
157.2563
240.8878
271.4477
316.1353
337.9335
0.3 0.3 0.2
-37.5953
181.6034
204.6444
262.6735
332.8868
351.7022
0.3 0.3 0.3
163.8286
180.8412
258.7557
267.1096
372.1316
374.8094
0.3 0.3 0.4
79.1912
189.69
218.025
265.9614
346.9548
361.4766
0.3 0.3 -0.5
-67.8939
154.4515
223.1663
265.7756
314.4527
337.5387
P	=	749.64	V	=	115.9289	E	=	-655.40931604
0.0 0.0 0.0
-0.0
-0.0
0.0
291.4577
291.4577
470.4304
0.0 0.0 0.1
-129.3501
-129.3501
-73.9168
241.9663
241.9663
417.0315
0.0 0.0 0.2
-84.0743
-84.0743
200.7264
200.7264
209.2235
367.8096
0.0 0.0 0.3
193.3618
193.3618
209.5823
209.5823
356.1725
371.1606
0.0 0.0 0.4
79.9789
79.9789
206.3497
206.3497
267.1665
370.3442
0.0 0.0 -0.5
-142.2888
-142.2888
-6.7341
220.2781
220.2781
393.6624
0.0 0.1 0.0
-73.6445
47.1126
100.4689
294.3449
296.3603
451.055
0.0 0.1 0.1
-135.1002
-109.8276
67.9354
249.9173
253.2336
403.3022
0.0 0.1 0.2
-59.7899
-39.7736
209.5684
211.3555
211.9846
360.5538
0.0 0.1 0.3
194.0136
200.7897
209.7195
216.1198
345.0509
360.2828
0.0 0.1 0.4
95.8457
105.4305
212.4989
215.8427
261.4864
362.4654
0.0 0.1 -0.5
-139.1477
-121.4724
89.6821
230.5824
233.6886
382.78
0.0 0.2 0.0
-111.372
96.7267
194.8132
302.8333
313.4432
404.2053
0.0 0.2 0.1
-153.6013
-13.1573
194.9967
268.0672
277.6964
374.0359
0.0 0.2 0.2
-84.698
108.818
225.1909
236.5813
254.1036
354.3933
0.0 0.2 0.3
181.6565
200.2804
220.2999
233.5116
339.8009
352.2602
0.0 0.2 0.4
74.0721
151.6672
218.4985
237.679
283.0721
356.5435
0.0 0.2 -0.5
-155.3959
-35.7446
203.2264
253.0401
259.0003
362.8448
0.0 0.3 0.0
-58.3975
145.8224
276.5616
316.0124
343.8029
357.9432
0.0 0.3 0.1
-127.0011
116.6958
279.5256
286.5617
293.848
363.0541
0.0 0.3 0.2
-87.6373
161.3818
229.9281
260.1346
319.7022
370.52
0.0 0.3 0.3
170.2074
192.2736
245.1812
256.3979
369.3447
376.3288
0.0 0.3 0.4
53.0161
190.9605
219.8532
260.7386
336.3336
375.0786
0.0 0.3 -0.5
-135.9025
114.5402
267.7067
274.017
290.5639
363.3269
0.0 0.4 0.0
164.7205
186.8093
331.0919
335.2031
339.5679
378.9851
0.0 0.4 0.1
93.282
154.5395
290.1954
300.2616
340.7535
380.0986
0.0 0.4 0.2
88.7527
186.3081
244.3847
276.5668
369.8395
397.1745
0.0 0.4 0.3
205.2869
222.8627
267.8477
278.417
411.9381
415.7715
0.0 0.4 0.4
130.3053
214.4186
239.7702
279.1296
384.624
405.6995
0.0 0.4 -0.5
57.2427
148.938
271.7579
287.6759
344.633
382.1609
0.0 -0.5 0.0
212.2316
252.9331
328.4427
342.8174
378.1511
404.5843
0.0 -0.5 0.1
169.3497
191.9154
292.7883
308.2044
371.1443
396.7625
0.0 -0.5 0.2
165.1281
192.9244
265.0139
285.664
396.951
418.4782
0.0 -0.5 0.3
250.4172
263.8976
282.4092
293.4236
443.6929
446.9423
0.0 -0.5 0.4
190.6412
223.6055
267.4696
290.5669
413.3977
430.6414
0.0 -0.5 -0.5
158.432
166.1163
278.2363
294.583
372.4459
398.0877
0.1 0.1 0.0
-95.952
67.3539
140.5231
297.2792
301.6788
433.5713
0.1 0.1 0.1
-145.034
-87.4477
127.5632
257.0812
262.6729
391.4949
0.1 0.1 0.2
-61.737
59.3109
217.6279
221.3188
221.9382
356.0382
0.1 0.1 0.3
191.412
206.1734
209.2854
222.414
339.1366
353.8882
0.1 0.1 0.4
95.0788
124.6764
215.9872
224.3594
264.1047
357.7579
0.1 0.1 -0.5
-146.4886
-98.1783
138.7614
239.6359
244.133
373.9593
0.1 0.2 0.0
-115.327
108.9921
212.0782
307.679
318.2002
390.9026
0.1 0.2 0.1
-155.9234
66.9821
213.0451
277.2375
280.6627
367.0078
0.1 0.2 0.2
-97.9467
130.6068
224.2562
244.4553
268.6978
354.4265
0.1 0.2 0.3
172.8684
192.6173
228.1575
240.137
342.4328
353.5638
0.1 0.2 0.4
50.7876
165.4387
216.3938
245.6735
292.7489
357.0055
0.1 0.2 -0.5
-158.6087
63.8839
220.1939
260.6332
264.5342
358.772
0.1 0.3 0.0
-64.0148
155.2452
272.4236
329.3701
345.6327
347.0278
0.1 0.3 0.1
-127.8101
138.5809
270.9994
285.0744
311.6182
359.454
0.1 0.3 0.2
-96.388
178.6371
225.0835
267.7455
325.8346
369.0742
0.1 0.3 0.3
159.3586
181.9263
253.467
263.296
371.0112
377.0875
0.1 0.3 0.4
21.616
198.3974
219.3756
268.3603
340.7254
374.1986
0.1 0.3 -0.5
-137.0796
139.978
263.3048
270.3262
307.4537
360.4502
0.1 0.4 0.0
150.3478
194.8239
310.6845
321.707
356.3089
379.5663
0.1 0.4 0.1
75.2277
175.4611
278.9297
298.6308
347.6083
375.487
0.1 0.4 0.2
66.5288
204.0747
234.8036
286.8326
368.3571
391.1122
0.1 0.4 0.3
187.909
205.1841
277.9392
286.7458
407.4035
410.5978
0.1 0.4 0.4
112.1312
216.6459
239.8884
288.5737
382.0578
399.6827
0.1 0.4 -0.5
24.5397
174.2094
260.4568
292.5751
347.8663
376.7413
0.2 0.2 0.0
-91.9349
138.5426
257.1426
317.8684
336.0686
362.3274
0.2 0.2 0.1
-142.0359
114.4195
259.1645
285.8153
295.4886
359.9059
0.2 0.2 0.2
-101.0922
160.9903
225.8139
258.9218
307.3883
363.8251
0.2 0.2 0.3
163.2598
185.6147
243.1197
253.9805
360.1724
367.9312
0.2 0.2 0.4
22.312
188.2048
216.4855
259.3872
324.6898
367.8694
0.2 0.2 -0.5
-148.3668
114.4953
261.22
265.065
287.2309
358.7617
0.2 0.3 0.0
41.7528
178.0711
280.2837
326.3165
350.6115
355.6287
0.2 0.3 0.1
-103.8943
170.3081
277.1319
278.3345
336.5741
359.0585
0.2 0.3 0.2
-84.3981
197.6567
227.5463
279.6347
345.1691
373.1062
0.2 0.3 0.3
154.2921
175.9848
268.8008
276.9007
382.821
386.9383
0.2 0.3 0.4
35.6496
199.2997
235.4676
280.8692
357.5897
379.8587
0.2 0.3 -0.5
-117.7487
173.1358
257.2116
277.7074
332.5555
361.0377
0.2 0.4 0.0
136.8338
217.3479
294.3021
295.6272
363.7685
387.4345
0.2 0.4 0.1
68.5912
210.687
261.1314
293.5593
359.4229
370.1084
0.2 0.4 0.2
53.4509
201.484
253.2918
299.7831
370.1024
379.9594
0.2 0.4 0.3
165.0763
181.086
295.8536
301.845
401.5347
403.2366
0.2 0.4 0.4
95.9027
197.2861
267.1847
302.3498
380.7935
389.438
0.2 0.4 -0.5
19.902
209.9846
247.6734
294.3227
359.4125
366.4428
0.3 0.3 0.0
158.1832
199.6527
311.4092
317.67
359.7912
383.0152
0.3 0.3 0.1
87.9686
181.4693
276.5229
300.1144
351.2352
376.6554
0.3 0.3 0.2
75.3214
207.6883
235.5512
289.9606
371.1088
392.0553
0.3 0.3 0.3
189.0521
205.688
281.7276
290.2571
409.7548
412.7016
0.3 0.3 0.4
116.4471
216.955
243.7868
291.8244
384.7092
400.9644
0.3 0.3 -0.5
49.6569
180.3862
258.547
294.6991
351.2213
377.4917
P	=	999.13	V	=	111.4903	E	=	-655.38303443
0.0 0.0 0.0
-0.0
-0.0
0.0
301.5032
301.5032
505.1592
0.0 0.0 0.1
-126.3492
-126.3492
-50.4679
256.1023
256.1023
453.3014
0.0 0.0 0.2
-70.1925
-70.1925
218.216
218.216
231.7245
401.8045
0.0 0.0 0.3
203.5707
203.5707
220.6763
220.6763
379.9466
396.4818
0.0 0.0 0.4
93.6317
93.6317
222.0986
222.0986
288.3726
401.7637
0.0 0.0 -0.5
-138.0893
-138.0893
67.1838
236.7816
236.7816
430.5996
0.0 0.1 0.0
-67.4488
54.1255
111.6253
306.5204
309.6831
486.5148
0.0 0.1 0.1
-127.4854
-103.0089
97.5042
265.5859
270.6253
440.2927
0.0 0.1 0.2
2.753
36.3686
230.1477
231.1016
235.2088
395.3969
0.0 0.1 0.3
207.1236
212.6125
223.519
228.6654
370.5596
387.1539
0.0 0.1 0.4
113.7955
119.5932
231.0663
232.4878
285.0815
394.952
0.0 0.1 -0.5
-129.7847
-113.5713
119.9636
248.1915
253.2791
420.3728
0.0 0.2 0.0
-96.8848
108.7826
215.0753
319.5339
334.0645
441.098
0.0 0.2 0.1
-140.4485
54.5541
221.3096
286.9341
302.2341
412.0228
0.0 0.2 0.2
-34.9518
128.6759
251.9589
256.2408
282.9451
390.3027
0.0 0.2 0.3
202.1377
220.8391
235.2175
248.903
368.7898
382.1986
0.0 0.2 0.4
108.4123
167.6097
243.6783
256.1627
311.0674
390.6889
0.0 0.2 -0.5
-140.4262
47.5253
231.2171
273.0112
285.5481
401.0389
0.0 0.3 0.0
44.8604
160.0977
302.6783
336.3294
370.986
394.6054
0.0 0.3 0.1
-101.5868
136.4309
308.0909
309.5256
325.8009
399.2801
0.0 0.3 0.2
-19.5464
180.5349
261.2432
281.1059
352.0173
406.7069
0.0 0.3 0.3
196.2531
217.7981
262.0156
273.5906
401.0667
408.5941
0.0 0.3 0.4
102.3659
208.3165
249.5158
280.5752
367.9973
410.1147
0.0 0.3 -0.5
-110.9346
135.9561
296.082
300.0895
322.4212
400.119
0.0 0.4 0.0
185.9153
200.9426
352.7605
367.9363
368.3865
409.758
0.0 0.4 0.1
127.2802
173.4484
322.2137
323.0438
373.2057
415.4735
0.0 0.4 0.2
126.5719
205.8876
273.954
298.0269
404.0178
433.7838
0.0 0.4 0.3
228.1092
245.7898
284.7548
295.6145
445.0707
449.2384
0.0 0.4 0.4
159.0495
232.2218
267.2515
299.1699
418.1429
441.2964
0.0 0.4 -0.5
104.6661
169.665
304.074
310.8518
378.1361
418.6579
0.0 -0.5 0.0
225.3124
270.0628
356.1475
364.4793
407.6616
436.6981
0.0 -0.5 0.1
187.9168
213.7006
321.3917
331.2436
403.6678
432.5093
0.0 -0.5 0.2
189.847
212.8694
290.9484
306.9892
431.3361
455.2207
0.0 -0.5 0.3
269.3167
283.1399
298.593
309.8273
477.0722
480.6214
0.0 -0.5 0.4
212.257
241.3166
291.1391
310.1444
447.1379
466.3014
0.0 -0.5 -0.5
179.4745
191.0643
307.1204
318.0653
406.0592
434.8727
0.1 0.1 0.0
-86.8508
76.9354
155.7074
311.32
317.759
469.6432
0.1 0.1 0.1
-135.2827
-74.3459
152.5949
274.1327
282.7055
429.0293
0.1 0.1 0.2
28.2664
84.5841
240.0505
240.9711
248.0696
391.453
0.1 0.1 0.3
207.0744
220.1397
224.7084
236.2428
366.0839
382.0343
0.1 0.1 0.4
117.6523
139.6356
236.9567
241.8728
289.5422
391.0226
0.1 0.1 -0.5
-134.6818
-84.3353
166.0594
258.3009
266.2412
411.9886
0.1 0.2 0.0
-98.4033
122.9408
233.1282
326.5187
340.0442
428.1158
0.1 0.2 0.1
-141.5671
92.5768
239.0774
298.5716
306.362
404.9625
0.1 0.2 0.2
-59.1387
150.8791
252.1021
265.6481
298.0969
390.3842
0.1 0.2 0.3
194.7122
213.9069
245.163
257.2049
372.1064
384.0948
0.1 0.2 0.4
94.8658
182.7664
242.7475
265.6119
321.585
391.3585
0.1 0.2 -0.5
-142.9044
92.7515
247.3737
286.7226
288.8604
396.8052
0.1 0.3 0.0
41.9766
171.5794
296.222
353.5421
372.9551
383.8617
0.1 0.3 0.1
-101.4937
159.7722
296.4856
316.5688
340.3957
395.1622
0.1 0.3 0.2
-46.8715
199.7161
256.2019
291.2276
358.2592
405.0828
0.1 0.3 0.3
185.6464
207.1732
272.9181
282.8764
402.9638
409.5276
0.1 0.3 0.4
88.6104
219.3407
247.5664
290.6072
372.6275
409.1481
0.1 0.3 -0.5
-111.9147
162.4552
293.5377
297.9149
338.1048
396.8506
0.1 0.4 0.0
174.3928
211.3509
334.5124
354.9453
383.933
410.2787
0.1 0.4 0.1
114.9876
196.853
309.7509
325.3504
379.4634
410.4387
0.1 0.4 0.2
110.3815
226.6232
263.5206
311.7846
402.5157
427.5131
0.1 0.4 0.3
210.6377
227.6091
298.2325
307.2165
440.6701
444.1646
0.1 0.4 0.4
142.8348
239.8941
264.4719
312.0387
415.6604
435.1642
0.1 0.4 -0.5
90.593
197.1563
291.7861
319.3282
381.0452
412.8703
0.2 0.2 0.0
-58.2115
153.6973
281.0516
339.4146
361.9299
399.4999
0.2 0.2 0.1
-121.3941
135.4457
285.5947
313.1585
323.4596
396.5785
0.2 0.2 0.2
-57.7018
181.1237
256.3668
281.119
338.9675
399.8515
0.2 0.2 0.3
188.8536
210.3434
261.1976
272.2321
391.4441
399.8091
0.2 0.2 0.4
87.9631
206.661
245.4179
280.3484
355.6962
402.6793
0.2 0.2 -0.5
-127.4249
137.0935
286.3884
296.1195
316.1054
395.7479
0.2 0.3 0.0
92.9405
196.4673
303.7032
362.5261
378.0996
383.9862
0.2 0.3 0.1
-63.1244
192.8764
303.7025
311.1524
367.2586
393.6183
0.2 0.3 0.2
13.2351
221.6542
258.0686
305.3078
378.398
408.9184
0.2 0.3 0.3
180.7754
201.3325
290.5695
298.7846
415.4336
419.8962
0.2 0.3 0.4
93.4475
225.3267
261.0262
305.3589
390.36
414.7919
0.2 0.3 -0.5
-83.4685
196.7747
290.7288
304.5126
364.5539
396.6732
0.2 0.4 0.0
165.6271
237.8266
319.9981
327.975
392.7012
417.9558
0.2 0.4 0.1
114.0445
235.2549
294.0578
321.7699
392.4451
403.1808
0.2 0.4 0.2
103.9314
229.5907
281.216
328.4162
404.4469
415.6159
0.2 0.4 0.3
189.2836
204.7255
320.1956
326.409
434.9802
436.8486
0.2 0.4 0.4
130.5189
224.1639
293.256
329.7008
414.6944
424.3976
0.2 0.4 -0.5
92.7907
236.0932
280.3483
323.5436
393.1813
401.0822
0.3 0.3 0.0
181.8633
216.5433
335.282
350.519
387.7206
413.8906
0.3 0.3 0.1
124.3771
203.2788
307.3713
327.0065
383.166
411.5541
0.3 0.3 0.2
116.0449
230.8942
263.8234
315.4171
405.3451
428.4551
0.3 0.3 0.3
211.3832
227.7424
302.5095
311.2229
443.1107
446.3442
0.3 0.3 0.4
146.2224
240.7603
267.995
315.7976
418.4055
436.4598
0.3 0.3 -0.5
101.0428
203.751
289.7381
321.828
384.4512
413.5828
P	=	1499.98	V	=	104.5144	E	=	-655.32436077
0.0 0.0 0.0
-0.0
-0.0
-0.0
328.8055
328.8055
565.3513
0.0 0.0 0.1
-110.0787
-110.0787
66.1336
289.6778
289.6778
517.1489
0.0 0.0 0.2
44.3908
44.3908
250.1722
250.1722
271.8721
462.1464
0.0 0.0 0.3
219.6468
219.6468
237.3848
237.3848
421.3503
440.6541
0.0 0.0 0.4
123.113
123.113
249.0537
249.0537
326.1164
457.5982
0.0 0.0 -0.5
-117.1723
-117.1723
121.8512
272.8691
272.8691
495.8415
0.0 0.1 0.0
-56.2877
66.3297
130.7875
335.2044
340.3932
547.5373
0.0 0.1 0.1
-104.438
-75.0915
143.8589
299.8916
307.3842
505.0005
0.0 0.1 0.2
95.6344
96.5869
263.1546
267.2139
279.216
456.5785
0.0 0.1 0.3
228.6862
231.6602
245.5531
248.2928
414.0644
433.0787
0.0 0.1 0.4
147.4422
148.2527
261.2227
262.7734
326.3123
451.8409
0.0 0.1 -0.5
-99.2467
-80.9267
169.1978
284.7016
292.4409
486.3644
0.0 0.2 0.0
-67.6189
129.8854
249.8453
351.4814
372.7994
503.4744
0.0 0.2 0.1
-106.6242
103.7876
267.1792
323.278
346.6873
477.8347
0.0 0.2 0.2
107.2469
165.2168
291.8741
297.3842
333.0098
452.3788
0.0 0.2 0.3
235.3992
254.309
260.112
274.4143
417.0267
432.0262
0.0 0.2 0.4
156.7519
197.1277
285.9365
288.7694
359.1083
449.1872
0.0 0.2 -0.5
-98.8771
105.7299
280.0706
311.0429
332.5422
467.6002
0.0 0.3 0.0
104.0648
185.2833
347.5126
371.8623
418.1583
455.6598
0.0 0.3 0.1
37.3761
172.1726
347.2074
360.9026
380.0908
462.5079
0.0 0.3 0.2
120.3742
215.6161
313.6822
319.4863
407.523
469.1566
0.0 0.3 0.3
236.4026
258.0551
291.1377
303.4067
454.2434
462.6639
0.0 0.3 0.4
159.5213
239.8155
298.721
316.4678
422.0723
470.093
0.0 0.3 -0.5
25.5135
174.6315
336.5382
354.6747
377.501
464.3793
0.0 0.4 0.0
216.7337
226.1256
391.2691
418.3751
422.6331
462.8074
0.0 0.4 0.1
176.1904
208.8206
364.7721
377.0399
429.5641
477.2981
0.0 0.4 0.2
180.1547
242.9851
324.78
337.7835
462.9817
497.6478
0.0 0.4 0.3
264.2932
282.7158
315.2222
326.5264
501.4436
506.2622
0.0 0.4 0.4
203.5052
265.822
314.051
336.1089
475.7628
503.0614
0.0 0.4 -0.5
163.5461
208.5109
353.6371
359.7835
436.2442
482.5914
0.0 -0.5 0.0
248.8868
297.0694
403.1491
404.8855
459.9145
492.3728
0.0 -0.5 0.1
223.9785
251.4781
371.5033
374.6304
461.2237
495.4534
0.0 -0.5 0.2
232.3156
252.6133
336.7037
346.7288
491.4982
520.0349
0.0 -0.5 0.3
300.4108
315.0033
328.8075
340.0273
534.5423
538.7029
0.0 -0.5 0.4
249.3673
276.6521
332.5181
346.4918
505.8898
528.9188
0.0 -0.5 -0.5
220.4619
234.2636
358.1436
362.2321
465.4102
499.8744
0.1 0.1 0.0
-70.0458
93.5932
181.7841
341.3482
351.3794
531.313
0.1 0.1 0.1
-108.7869
23.6448
196.1236
309.322
322.1521
494.3678
0.1 0.1 0.2
106.9957
127.5655
274.7386
279.8836
294.7342
453.166
0.1 0.1 0.3
233.0061
242.0004
250.8423
258.4888
411.403
429.4581
0.1 0.1 0.4
155.9323
168.595
271.9425
272.9879
333.5505
448.661
0.1 0.1 -0.5
-100.0469
16.2696
213.4891
295.493
308.0634
478.4603
0.1 0.2 0.0
-62.4151
147.1159
269.0239
361.2678
379.9692
490.7048
0.1 0.2 0.1
-105.042
134.2229
283.9531
338.5785
351.96
470.7358
0.1 0.2 0.2
96.4475
187.6625
299.0098
303.5331
349.1809
452.518
0.1 0.2 0.3
229.2587
247.5661
274.279
285.9533
421.4568
434.8677
0.1 0.2 0.4
147.8876
214.1592
286.7375
300.6915
370.982
450.1454
0.1 0.2 -0.5
-100.0396
138.6056
293.8916
329.7979
336.8021
463.1576
0.1 0.3 0.0
106.3309
200.0122
336.0106
396.0557
420.1125
444.8974
0.1 0.3 0.1
41.7597
197.3157
339.7182
369.3439
391.9388
457.7587
0.1 0.3 0.2
110.2365
237.2666
307.9545
333.5585
414.0093
467.4844
0.1 0.3 0.3
225.1757
246.1025
306.5917
316.7776
456.584
464.0038
0.1 0.3 0.4
148.7551
254.7188
295.6084
330.3537
427.0895
469.2023
0.1 0.3 -0.5
23.049
202.308
337.9822
352.2717
392.1862
460.6756
0.1 0.4 0.0
208.4693
240.2101
375.4586
410.0275
432.3982
463.1011
0.1 0.4 0.1
167.6423
235.2786
359.625
375.1682
435.306
471.5972
0.1 0.4 0.2
166.8532
266.9507
312.9009
357.0885
461.3935
491.1605
0.1 0.4 0.3
246.0546
263.1712
333.9629
343.299
497.1673
501.3035
0.1 0.4 0.4
188.5603
279.0418
308.5205
354.4249
473.3059
496.8238
0.1 0.4 -0.5
154.2491
238.419
344.485
368.3146
438.8756
476.2839
0.2 0.2 0.0
69.3056
180.1502
321.4117
377.6464
407.0729
461.4048
0.2 0.2 0.1
-60.9679
172.7057
329.7553
359.9309
374.3448
460.604
0.2 0.2 0.2
103.6397
217.4229
306.8246
321.6477
393.3343
462.0842
0.2 0.2 0.3
227.9293
248.8383
292.4082
303.6496
443.7157
453.0839
0.2 0.2 0.4
147.886
239.4715
293.2703
317.9174
408.6465
462.2645
0.2 0.2 -0.5
-63.4114
177.0804
329.1216
348.9816
368.3419
460.4791
0.2 0.3 0.0
141.3218
228.3035
342.8224
422.0935
425.5309
432.7764
0.2 0.3 0.1
97.0152
232.3783
348.3882
366.6671
421.0468
454.4835
0.2 0.3 0.2
121.7424
262.6019
310.2103
350.642
435.5445
471.4267
0.2 0.3 0.3
220.0901
240.1189
328.0564
336.5583
470.3978
475.5697
0.2 0.3 0.4
151.8374
267.2232
306.4356
348.5359
446.3283
475.2509
0.2 0.3 -0.5
84.8128
238.1845
346.2889
351.8038
420.4633
459.4728
0.2 0.4 0.0
205.1247
273.0874
361.3997
382.8524
442.6851
470.334
0.2 0.4 0.1
170.8973
277.9305
349.3694
370.524
450.6002
461.1264
0.2 0.4 0.2
163.5456
276.9845
329.992
378.5325
463.7422
478.3935
0.2 0.4 0.3
226.052
241.4845
361.9313
368.6407
491.6755
494.0357
0.2 0.4 0.4
179.3281
268.9933
338.6036
377.551
472.806
485.435
0.2 0.4 -0.5
159.0072
281.1772
336.2101
374.2168
452.3114
462.3391
0.3 0.3 0.0
215.7953
245.9652
376.4827
404.9118
436.6503
467.004
0.3 0.3 0.1
175.1494
242.3048
358.2482
376.2493
439.1972
472.6424
0.3 0.3 0.2
170.9274
272.043
312.8296
361.4387
464.4105
492.1771
0.3 0.3 0.3
246.2891
262.8112
339.0157
348.0952
499.8015
503.6642
0.3 0.3 0.4
191.1805
280.9114
311.4264
358.9456
476.251
498.2176
0.3 0.3 -0.5
161.4759
245.604
342.6436
371.071
442.4569
476.9734
P	=	1999.4	V	=	99.1777	E	=	-655.26120796
0.0 0.0 0.0
-0.0
0.0
0.0
357.9778
357.9778
614.5392
0.0 0.0 0.1
-101.6077
-101.6077
92.7018
317.6139
317.6139
567.5891
0.0 0.0 0.2
80.8223
80.8223
270.8615
270.8615
299.5921
509.7941
0.0 0.0 0.3
233.08
233.08
250.757
250.757
456.0664
477.8181
0.0 0.0 0.4
141.3409
141.3409
266.985
266.985
354.5189
502.7138
0.0 0.0 -0.5
-105.2515
-105.2515
146.4827
299.8384
299.8384
546.7818
0.0 0.1 0.0
-61.1135
68.103
142.9388
362.2585
369.2987
595.8765
0.0 0.1 0.1
-94.3279
-59.0344
168.4573
326.5104
335.782
555.1921
0.0 0.1 0.2
119.095
121.1929
284.0115
290.1127
309.316
503.9466
0.0 0.1 0.3
244.0566
245.0111
261.0972
261.8448
448.5317
469.7246
0.0 0.1 0.4
164.4751
166.1408
279.5426
283.213
356.2728
496.5153
0.0 0.1 -0.5
-81.9336
-59.3937
196.4254
310.7564
320.293
537.1581
0.0 0.2 0.0
-74.7106
134.7665
273.0548
374.9247
402.717
549.4214
0.0 0.2 0.1
-91.6199
119.1637
296.9056
348.0819
377.7058
526.949
0.0 0.2 0.2
136.059
182.4493
313.8962
325.847
367.7817
498.7267
0.0 0.2 0.3
254.1207
273.9503
274.2487
289.2023
452.2138
468.5706
0.0 0.2 0.4
178.2981
212.1409
308.6632
312.2032
393.2099
492.8212
0.0 0.2 -0.5
-72.6984
124.4489
311.9027
336.1472
364.0336
517.401
0.0 0.3 0.0
108.5758
194.747
379.6789
394.8668
452.7143
498.0732
0.0 0.3 0.1
82.2639
188.4463
372.6831
396.6769
417.7732
509.0276
0.0 0.3 0.2
151.4929
234.3791
344.0211
347.2562
447.8995
515.3384
0.0 0.3 0.3
256.4601
279.5959
308.0826
321.1433
493.3463
502.3687
0.0 0.3 0.4
183.4844
257.1155
329.3891
339.175
461.726
514.4082
0.0 0.3 -0.5
86.8444
193.0582
362.8436
391.2291
416.7163
511.8978
0.0 0.4 0.0
229.9489
240.5248
418.0222
457.2141
461.0913
504.1386
0.0 0.4 0.1
200.6976
229.6041
393.4544
415.7588
472.5529
524.2863
0.0 0.4 0.2
207.8533
266.691
359.25
365.1524
508.3043
546.5901
0.0 0.4 0.3
285.0505
304.8394
336.4122
348.143
545.6033
550.8433
0.0 0.4 0.4
227.3087
288.0482
345.2414
361.7954
520.4543
550.7569
0.0 0.4 -0.5
192.5059
231.5205
382.9388
398.836
480.393
531.1066
0.0 -0.5 0.0
266.9507
315.7373
436.1368
438.5307
503.1863
538.7251
0.0 -0.5 0.1
249.0701
276.559
406.5934
408.668
507.2454
545.8824
0.0 -0.5 0.2
259.3801
281.4577
369.9813
375.9954
539.6153
572.0483
0.0 -0.5 0.3
322.3899
337.9459
353.6379
364.7199
582.2208
586.8844
0.0 -0.5 0.4
273.7774
303.721
362.8077
374.1315
553.5237
579.811
0.0 -0.5 -0.5
248.2716
262.0232
394.282
395.6251
512.424
551.5199
0.1 0.1 0.0
-76.2537
96.6906
198.5524
366.892
380.2832
578.8285
0.1 0.1 0.1
-97.887
56.3872
222.0631
335.1684
351.1642
544.2592
0.1 0.1 0.2
132.4238
146.8448
296.0311
304.6911
326.6786
500.2022
0.1 0.1 0.3
249.5827
255.6486
267.955
272.6381
445.8626
465.815
0.1 0.1 0.4
175.2906
184.1299
291.1303
295.299
364.985
492.9139
0.1 0.1 -0.5
-80.4087
61.3785
242.1248
321.1435
336.8973
529.0176
0.1 0.2 0.0
-69.4807
154.5063
292.4062
386.0239
409.687
535.8523
0.1 0.2 0.1
-88.6158
150.2948
312.7112
366.1404
383.1397
519.3717
0.1 0.2 0.2
126.7445
205.8275
326.408
328.8655
384.955
498.5752
0.1 0.2 0.3
246.9135
265.2819
291.5882
302.8987
457.0506
471.6196
0.1 0.2 0.4
169.2723
230.4347
313.6021
322.3249
406.0913
493.5688
0.1 0.2 -0.5
-73.0879
157.2012
323.3304
359.3265
368.6604
512.4915
0.1 0.3 0.0
111.6209
212.4324
361.5759
426.229
454.0893
486.4478
0.1 0.3 0.1
84.6598
215.9709
367.4118
404.6476
429.1326
503.5911
0.1 0.3 0.2
141.3426
258.0033
340.0156
361.4799
454.7202
513.4801
0.1 0.3 0.3
243.0883
265.0764
326.9384
337.5288
495.7672
503.7302
0.1 0.3 0.4
171.7303
274.2679
325.0265
356.0634
467.0481
513.3712
0.1 0.3 -0.5
85.6971
222.7646
366.1636
388.7993
431.1629
507.6941
0.1 0.4 0.0
221.7753
257.0222
403.6448
447.4441
469.0736
503.6887
0.1 0.4 0.1
192.2333
258.347
391.3754
411.729
477.5866
517.728
0.1 0.4 0.2
194.0003
292.3255
345.1254
388.674
506.3987
539.532
0.1 0.4 0.3
264.4304
282.5611
358.3463
368.1258
540.7313
545.2639
0.1 0.4 0.4
211.2474
303.2948
337.6266
383.9702
517.6226
543.9266
0.1 0.4 -0.5
183.327
263.3813
378.7838
403.5085
482.6304
524.077
0.2 0.2 0.0
70.7625
190.0319
348.0444
404.0782
439.6906
504.3894
0.2 0.2 0.1
29.4547
189.5185
357.64
392.3906
409.7045
507.5377
0.2 0.2 0.2
135.435
236.544
337.1109
348.8031
432.4304
507.9155
0.2 0.2 0.3
246.4352
268.2612
310.7429
322.3196
481.6122
491.6821
0.2 0.2 0.4
170.9238
257.132
322.181
341.89
447.0105
505.9973
0.2 0.2 -0.5
45.3191
195.9541
356.2841
384.0333
405.3643
508.2652
0.2 0.3 0.0
150.0951
244.8344
367.6027
459.5024
461.4622
468.1863
0.2 0.3 0.1
126.4855
254.1349
377.5571
403.4106
460.4393
498.9836
0.2 0.3 0.2
151.443
286.0392
343.342
380.6628
477.9869
517.6187
0.2 0.3 0.3
236.9138
258.1045
351.6015
360.5606
510.8926
516.4491
0.2 0.3 0.4
174.3991
290.3673
335.4116
376.9744
487.97
519.8738
0.2 0.3 -0.5
122.5088
261.3424
379.3875
386.5153
461.4833
505.6681
0.2 0.4 0.0
219.5878
295.0119
389.3047
417.7522
479.2547
509.9466
0.2 0.4 0.1
196.6826
304.317
385.5882
404.1192
493.5759
504.85
0.2 0.4 0.2
190.7632
305.2316
362.4351
413.1
508.8699
525.4602
0.2 0.4 0.3
242.4807
258.9104
390.1872
397.4461
534.4549
537.0258
0.2 0.4 0.4
201.6608
294.9107
368.8229
410.6029
517.0812
531.2659
0.2 0.4 -0.5
188.8668
308.8741
373.1751
409.1094
496.5157
508.2588
0.3 0.3 0.0
229.7721
263.5861
405.0834
441.7318
473.7411
508.0041
0.3 0.3 0.1
199.7046
266.1472
391.1475
412.091
481.7067
518.905
0.3 0.3 0.2
197.8875
298.0901
345.0205
393.6143
509.6818
540.7359
0.3 0.3 0.3
264.4903
281.9893
364.1751
373.6986
543.6341
547.8909
0.3 0.3 0.4
213.8062
305.8184
340.4507
389.1697
520.8359
545.5288
0.3 0.3 -0.5
190.2424
271.3001
377.5121
406.1524
486.4637
524.8961
P	=	2500.07	V	=	94.8736	E	=	-655.19561526
0.0 0.0 0.0
-0.0
0.0
0.0
378.5464
378.5464
660.1879
0.0 0.0 0.1
-101.2128
-101.2128
114.4
336.892
336.892
613.0377
0.0 0.0 0.2
93.3133
93.3133
286.821
286.821
326.7734
551.9917
0.0 0.0 0.3
245.1288
245.1288
263.3542
263.3542
489.3987
512.8696
0.0 0.0 0.4
151.6988
151.6988
281.9371
281.9371
382.7923
543.1624
0.0 0.0 -0.5
-103.5538
-103.5538
169.0901
318.5302
318.5302
592.0484
0.0 0.1 0.0
-65.7215
64.384
151.3804
381.3823
389.9241
640.2667
0.0 0.1 0.1
-87.2603
-59.1368
185.7426
344.8428
355.6523
599.9304
0.0 0.1 0.2
127.8094
134.273
299.3589
307.1734
336.5713
545.4481
0.0 0.1 0.3
255.7042
256.5105
273.2354
274.1634
480.8088
503.6194
0.0 0.1 0.4
173.0329
177.6107
293.7725
299.1841
384.4109
536.0934
0.0 0.1 -0.5
-69.9819
-56.1664
217.266
328.6745
339.7913
581.8313
0.0 0.2 0.0
-80.6927
131.7555
290.0111
391.6998
425.0689
590.6212
0.0 0.2 0.1
-76.944
120.7242
318.3966
365.1673
400.4369
569.6118
0.0 0.2 0.2
154.7801
189.4711
328.8782
346.7144
395.6393
538.2532
0.0 0.2 0.3
268.0916
283.4686
288.7974
299.3161
482.9513
500.5498
0.0 0.2 0.4
193.3587
219.3754
322.3796
331.6802
421.6399
530.285
0.0 0.2 -0.5
-40.2655
128.1853
335.3012
353.2139
386.9514
560.1456
0.0 0.3 0.0
115.3043
197.2899
404.761
412.0043
480.3427
535.6202
0.0 0.3 0.1
107.9037
194.5367
390.6279
424.1399
447.441
548.2949
0.0 0.3 0.2
173.1698
243.8803
360.5585
373.1047
479.9803
553.5683
0.0 0.3 0.3
272.3446
296.7185
319.1359
333.0425
526.1697
535.8204
0.0 0.3 0.4
201.3853
266.654
353.1787
354.5462
493.8793
551.2994
0.0 0.3 -0.5
116.2376
200.5177
380.9734
419.4564
447.0666
551.5435
0.0 0.4 0.0
245.1829
250.5731
439.0438
489.465
495.9657
538.855
0.0 0.4 0.1
221.8833
241.84
414.499
448.3879
507.4091
563.1233
0.0 0.4 0.2
229.9624
281.3467
384.6616
387.6629
545.4327
587.054
0.0 0.4 0.3
304.2029
325.0759
352.3282
364.5836
583.4876
589.1058
0.0 0.4 0.4
247.4752
302.7545
371.5294
380.4933
557.6966
590.6819
0.0 0.4 -0.5
215.6674
244.6523
403.9226
431.0742
515.9588
570.9305
0.0 -0.5 0.0
282.8217
336.2768
461.4904
472.2032
540.5843
578.629
0.0 -0.5 0.1
266.4286
299.3067
430.7984
441.5207
545.6571
587.9019
0.0 -0.5 0.2
282.7387
301.0419
398.0798
399.043
580.1082
615.7342
0.0 -0.5 0.3
344.9532
361.2719
374.2345
385.4571
624.3815
629.4513
0.0 -0.5 0.4
296.2876
323.4076
390.2712
395.7595
594.3687
623.298
0.0 -0.5 -0.5
266.3639
285.6824
418.014
427.957
551.3439
594.2501
0.1 0.1 0.0
-82.0579
92.8933
210.3533
385.044
401.1694
622.0568
0.1 0.1 0.1
-88.6686
57.1028
240.2097
352.9862
371.746
588.3006
0.1 0.1 0.2
147.2977
154.6125
311.1815
322.8915
353.8406
541.0131
0.1 0.1 0.3
262.2395
265.6648
281.3928
283.608
477.326
498.7879
0.1 0.1 0.4
187.7577
192.0892
305.1086
312.3035
392.9937
531.6847
0.1 0.1 -0.5
-62.2075
65.7541
263.1049
338.7188
357.3037
573.0762
0.1 0.2 0.0
-75.3301
154.007
308.9836
404.4834
431.8847
576.0637
0.1 0.2 0.1
-72.5024
154.3559
332.9612
386.1892
406.0861
561.3129
0.1 0.2 0.2
145.7132
214.1033
342.8707
349.9971
413.224
537.5409
0.1 0.2 0.3
259.566
277.4705
303.9098
314.6209
487.5724
503.2615
0.1 0.2 0.4
183.871
238.7492
333.2792
337.4563
434.8218
530.4955
0.1 0.2 -0.5
-40.0322
163.0069
343.8509
381.1085
391.9461
554.5533
0.1 0.3 0.0
118.3177
217.7363
379.907
450.2339
481.0469
522.9791
0.1 0.3 0.1
109.0334
224.8005
386.8729
432.0999
458.233
542.0291
0.1 0.3 0.2
161.7465
269.5358
363.4669
382.0331
486.9315
551.3614
0.1 0.3 0.3
256.4473
279.136
341.3371
352.2103
528.3187
536.8603
0.1 0.3 0.4
187.9221
285.804
347.2911
374.4423
499.2372
549.9092
0.1 0.3 -0.5
114.0635
232.7895
385.8292
416.9894
461.3339
546.7189
0.1 0.4 0.0
236.1242
268.504
425.1657
480.907
499.1453
537.3807
0.1 0.4 0.1
212.0965
272.983
414.4854
442.3966
511.7039
555.4795
0.1 0.4 0.2
214.2087
308.9764
370.2223
412.705
543.0106
579.2372
0.1 0.4 0.3
280.2488
299.079
377.3079
387.5004
577.6243
582.5116
0.1 0.4 0.4
229.1234
320.2854
360.7242
406.5129
554.2192
583.0116
0.1 0.4 -0.5
205.0946
278.9485
403.8915
432.1306
517.7007
563.0081
0.2 0.2 0.0
74.3689
192.4497
367.2367
424.7188
465.2042
542.3246
0.2 0.2 0.1
69.4939
195.9047
376.8741
417.3198
437.0403
547.3384
0.2 0.2 0.2
156.0623
246.339
357.2585
370.1983
463.2613
545.9725
0.2 0.2 0.3
260.1267
282.4287
323.3902
335.1566
513.3074
524.1159
0.2 0.2 0.4
187.13
266.8925
343.3317
359.1446
477.9402
542.4578
0.2 0.2 -0.5
84.2493
203.7841
374.9763
410.6128
433.7293
548.334
0.2 0.3 0.0
159.3027
254.4169
385.3895
486.3467
495.8566
496.6776
0.2 0.3 0.1
147.2803
266.4302
398.4328
432.5659
491.3793
535.7021
0.2 0.3 0.2
171.1453
300.2546
368.9048
402.1924
511.6653
555.368
0.2 0.3 0.3
249.4109
271.5059
368.8942
378.1826
544.3099
550.2829
0.2 0.3 0.4
190.1939
305.3012
357.7905
397.4904
521.4917
556.5196
0.2 0.3 -0.5
146.534
274.454
401.6647
415.1861
493.4969
543.5317
0.2 0.4 0.0
233.1206
310.1686
409.7871
448.1508
508.0937
542.2996
0.2 0.4 0.1
216.518
321.5988
414.4327
429.419
527.9289
539.8777
0.2 0.4 0.2
210.0582
325.1701
387.1728
438.8431
545.075
563.7224
0.2 0.4 0.3
255.3333
272.6123
412.1336
419.833
569.9363
572.7321
0.2 0.4 0.4
218.0333
314.0595
391.7873
435.5315
553.0391
568.8409
0.2 0.4 -0.5
210.5484
326.8906
402.4164
434.93
531.5944
545.1369
0.3 0.3 0.0
244.5779
275.8783
426.9495
474.6816
504.1225
542.0725
0.3 0.3 0.1
219.5244
281.6102
415.4324
442.0288
516.0482
556.6859
0.3 0.3 0.2
217.9893
315.4904
370.2218
418.105
546.5638
580.5784
0.3 0.3 0.3
280.2151
298.408
383.905
393.8489
580.777
585.3793
0.3 0.3 0.4
231.643
323.7056
363.3788
412.331
557.6987
584.784
0.3 0.3 -0.5
211.8407
287.6575
403.6427
434.2281
521.7935
563.8678
P	=	2999.31	V	=	91.2893	E	=	-655.12877881
0.0 0.0 0.0
-0.0
-0.0
0.0
390.5242
390.5242
700.5299
0.0 0.0 0.1
-101.0905
-101.0905
132.5657
350.2302
350.2302
653.0985
0.0 0.0 0.2
100.814
100.814
301.1151
301.1151
349.8753
588.4253
0.0 0.0 0.3
254.8317
254.8317
274.0645
274.0645
517.2507
542.2002
0.0 0.0 0.4
158.4737
158.4737
295.6364
295.6364
406.5026
577.8171
0.0 0.0 -0.5
-102.6948
-102.6948
188.3536
332.6564
332.6564
631.8532
0.0 0.1 0.0
-60.3088
64.562
160.5933
394.4713
404.3664
680.4031
0.0 0.1 0.1
-78.5596
-57.0699
201.9885
358.7256
370.9351
639.48
0.0 0.1 0.2
135.1949
144.5788
313.3786
322.6001
360.41
581.4206
0.0 0.1 0.3
265.7595
267.9198
284.124
286.3661
509.3544
533.4548
0.0 0.1 0.4
180.4254
187.0805
307.2314
314.0499
409.0489
570.5376
0.0 0.1 -0.5
-56.9039
-51.75
235.9119
343.0277
355.5579
620.9955
0.0 0.2 0.0
-61.4148
134.8644
307.867
407.2652
445.4307
629.8647
0.0 0.2 0.1
-52.9254
125.6566
338.9089
380.3909
420.6236
607.571
0.0 0.2 0.2
170.9224
197.9522
342.9156
365.4872
421.3989
572.9715
0.0 0.2 0.3
283.7979
294.7717
304.9383
311.1602
513.0499
531.5178
0.0 0.2 0.4
208.221
228.3728
335.9671
349.9635
448.4385
564.0763
0.0 0.2 -0.5
42.8199
134.0526
356.9075
368.3359
407.1589
597.4412
0.0 0.3 0.0
138.856
205.2994
429.8556
430.1218
507.3114
572.6514
0.0 0.3 0.1
130.8196
202.7583
407.5573
449.4753
474.6941
583.57
0.0 0.3 0.2
191.9945
254.5071
375.7364
395.7738
509.6111
587.5712
0.0 0.3 0.3
291.974
316.7054
332.6887
346.9701
558.5537
568.6277
0.0 0.3 0.4
219.7349
277.9597
369.4639
375.2552
524.2082
585.0695
0.0 0.3 -0.5
137.8105
209.039
397.4535
444.2457
474.8121
586.3583
0.0 0.4 0.0
262.9775
264.3377
459.4335
519.7059
529.4289
571.2252
0.0 0.4 0.1
240.651
253.605
433.2218
477.0383
538.9055
597.8479
0.0 0.4 0.2
248.651
294.7085
401.5793
412.0345
578.6771
622.8487
0.0 0.4 0.3
324.6742
346.1065
368.5923
381.1047
618.7731
624.6753
0.0 0.4 0.4
266.2266
316.8144
395.0725
397.3513
591.4476
626.5338
0.0 0.4 -0.5
234.3615
256.3946
422.054
458.654
547.6832
606.0055
0.0 -0.5 0.0
297.7091
354.9171
483.5995
502.4581
573.7216
614.2374
0.0 -0.5 0.1
280.6221
318.1595
450.9145
469.6789
579.3277
624.8489
0.0 -0.5 0.2
301.8271
316.7662
416.308
423.4939
615.5441
653.8716
0.0 -0.5 0.3
365.1756
382.074
392.606
403.9418
661.7785
667.1726
0.0 -0.5 0.4
315.289
339.7878
413.7451
414.0562
630.2492
661.4184
0.0 -0.5 -0.5
280.5419
304.761
437.4459
455.2931
585.3127
631.5894
0.1 0.1 0.0
-73.2502
94.1548
223.1133
399.2093
417.7097
661.9402
0.1 0.1 0.1
-75.8951
62.0079
257.5399
367.5048
388.6957
627.3303
0.1 0.1 0.2
159.3537
162.9531
325.2047
339.3918
378.2362
576.5388
0.1 0.1 0.3
274.7461
276.3943
294.3477
295.5846
506.4648
529.0553
0.1 0.1 0.4
198.525
200.8676
318.6142
328.2679
418.3897
565.9045
0.1 0.1 -0.5
-37.8968
72.1488
282.2838
353.4826
374.5165
611.6088
0.1 0.2 0.0
-47.9286
159.4523
326.627
422.7248
452.8864
614.9268
0.1 0.2 0.1
-43.7233
161.3055
351.9054
405.189
426.7839
598.7148
0.1 0.2 0.2
162.1333
223.9391
358.1087
369.1758
439.5617
571.9135
0.1 0.2 0.3
274.859
291.5316
318.8896
328.4672
517.9983
534.4652
0.1 0.2 0.4
198.8846
249.0447
350.9148
353.4214
462.1813
564.0944
0.1 0.2 -0.5
43.7942
170.6347
362.0186
401.7506
412.5946
591.2474
0.1 0.3 0.0
142.9198
228.08
399.114
474.8363
507.7111
559.5048
0.1 0.3 0.1
131.54
235.4461
405.1261
457.1677
485.6351
576.6813
0.1 0.3 0.2
179.4523
282.056
383.3803
401.6929
516.7525
585.1497
0.1 0.3 0.3
274.3436
296.7041
358.3794
369.0872
560.7193
569.6599
0.1 0.3 0.4
205.0615
298.9186
367.9666
392.6298
529.7162
583.5317
0.1 0.3 -0.5
134.9725
243.6627
403.6644
441.7414
489.1643
581.0255
0.1 0.4 0.0
256.1877
282.4764
445.889
513.8302
527.8517
569.2401
0.1 0.4 0.1
230.1628
287.3709
434.7172
469.9761
542.7884
589.4382
0.1 0.4 0.2
231.2523
324.5527
391.5831
434.4177
575.9768
614.5348
0.1 0.4 0.3
298.4529
317.414
396.9594
407.3573
612.4823
617.6426
0.1 0.4 0.4
246.1403
336.5912
381.7996
427.5786
587.6582
618.3926
0.1 0.4 -0.5
222.7058
293.37
424.7606
457.7574
549.1563
597.4147
0.2 0.2 0.0
104.0664
200.5377
387.0273
446.3183
490.3381
579.8517
0.2 0.2 0.1
97.6221
204.6607
394.7182
440.868
462.4166
583.057
0.2 0.2 0.2
173.9586
257.541
374.1708
390.8072
491.9325
579.8224
0.2 0.2 0.3
277.8045
299.5182
338.9982
350.3912
545.0195
556.3333
0.2 0.2 0.4
204.1758
278.6724
362.3792
376.8748
507.3791
575.9521
0.2 0.2 -0.5
108.4553
212.952
391.9436
434.1809
459.9381
583.441
0.2 0.3 0.0
182.2879
268.0309
404.1986
512.9097
525.0598
530.8048
0.2 0.3 0.1
167.4594
279.8358
417.9108
458.8909
520.4649
568.9399
0.2 0.3 0.2
188.2653
314.6929
391.4848
422.0954
542.6773
589.1355
0.2 0.3 0.3
267.0724
289.1013
388.2543
397.5458
577.3728
583.6512
0.2 0.3 0.4
206.9985
320.6672
379.4358
417.3297
553.0258
590.3041
0.2 0.3 -0.5
165.5554
287.8363
421.3663
440.523
522.9556
576.9084
0.2 0.4 0.0
254.6534
327.393
429.8032
479.5465
535.3365
573.5916
0.2 0.4 0.1
235.4211
338.662
439.6365
452.8392
559.115
571.9555
0.2 0.4 0.2
226.6769
343.1657
409.7457
462.3108
577.9207
598.014
0.2 0.4 0.3
272.4574
289.9745
434.7352
442.7274
604.1398
607.1488
0.2 0.4 0.4
234.44
332.3851
413.807
459.0555
586.2221
603.319
0.2 0.4 -0.5
228.607
343.9104
427.599
457.8342
563.2476
577.9266
0.3 0.3 0.0
264.6665
290.3792
447.8129
507.1218
532.9252
574.2215
0.3 0.3 0.1
237.5251
296.6136
436.3733
469.1747
547.2516
590.6746
0.3 0.3 0.2
234.9083
331.5829
391.7953
440.1415
579.7197
615.9989
0.3 0.3 0.3
298.201
316.5669
404.118
414.2994
615.7737
620.6463
0.3 0.3 0.4
248.5134
340.586
384.4418
433.8767
591.3143
620.2921
0.3 0.3 -0.5
229.3868
302.6853
425.3466
459.3626
553.4219
598.3329
P	=	5000.64	V	=	81.001	E	=	-654.85474758
0.0 0.0 0.0
-0.0
-0.0
0.0
454.0881
454.0881
829.505
0.0 0.0 0.1
12.3591
12.3591
195.6932
420.018
420.018
787.5474
0.0 0.0 0.2
173.5183
173.5183
363.9363
363.9363
427.0663
715.6072
0.0 0.0 0.3
293.5531
293.5531
313.7634
313.7634
607.9482
639.1451
0.0 0.0 0.4
211.6012
211.6012
351.8122
351.8122
484.2392
698.144
0.0 0.0 -0.5
60.6888
60.6888
256.2101
404.1131
404.1131
767.8309
0.0 0.1 0.0
-3.0556
81.9346
199.4936
457.8643
469.8382
810.4375
0.0 0.1 0.1
94.6218
106.6116
275.294
430.8465
446.0113
774.7493
0.0 0.1 0.2
205.2918
217.8401
379.954
394.4293
446.6974
709.8878
0.0 0.1 0.3
305.7293
314.2185
325.2864
333.9587
605.0054
634.4583
0.0 0.1 0.4
235.3142
246.9563
366.7125
379.4668
494.8715
692.738
0.0 0.1 -0.5
127.2112
128.4744
315.231
417.5981
433.5699
757.6478
0.0 0.2 0.0
95.9459
163.2118
377.6497
471.2071
519.277
760.4661
0.0 0.2 0.1
146.0837
200.1737
431.9571
457.766
509.1352
743.1028
0.0 0.2 0.2
258.5468
269.3932
417.3433
454.9618
525.596
703.4422
0.0 0.2 0.3
338.7581
347.2933
356.64
369.912
618.6132
640.5949
0.0 0.2 0.4
284.5901
288.1716
402.6033
433.6859
550.8216
689.5598
0.0 0.2 -0.5
175.4604
217.7398
449.5552
455.3915
500.5718
734.146
0.0 0.3 0.0
208.6703
240.3323
495.2649
517.8522
598.1614
697.5733
0.0 0.3 0.1
226.8554
273.845
488.8114
552.3881
584.2883
714.3755
0.0 0.3 0.2
286.5334
329.2893
456.4918
496.841
628.3452
718.8795
0.0 0.3 0.3
367.5955
383.1248
393.8075
398.9288
672.5471
684.4548
0.0 0.3 0.4
305.9528
343.1988
442.5635
470.6964
640.4446
712.6841
0.0 0.3 -0.5
239.7489
288.8746
483.4404
549.4237
591.039
719.3507
0.0 0.4 0.0
305.3047
322.1223
523.7655
617.729
640.1288
679.5436
0.0 0.4 0.1
318.2692
324.3959
513.7477
583.8295
655.9901
725.4129
0.0 0.4 0.2
333.4367
371.1751
484.7637
510.7935
704.2466
756.4693
0.0 0.4 0.3
395.4341
418.9276
426.0206
439.9442
739.5561
746.5305
0.0 0.4 0.4
345.0529
385.7584
474.1755
487.2925
715.0884
757.2046
0.0 0.4 -0.5
318.8192
334.9715
507.7823
566.6058
669.2238
737.8277
0.0 -0.5 0.0
347.1486
407.8186
545.2484
597.9772
678.5317
732.1473
0.0 -0.5 0.1
352.0885
389.2212
527.9356
569.3435
696.392
755.7467
0.0 -0.5 0.2
378.417
393.3554
499.326
513.2095
741.8767
790.1608
0.0 -0.5 0.3
426.3542
445.1073
455.0409
467.7373
786.4368
793.0537
0.0 -0.5 0.4
385.7375
410.3858
492.2973
496.1598
755.5902
795.0398
0.0 -0.5 -0.5
358.4166
382.1701
519.995
555.7086
706.4903
766.1406
0.1 0.1 0.0
40.4327
117.9129
275.5759
463.058
485.3732
792.5838
0.1 0.1 0.1
112.4542
149.8631
338.5082
442.1224
468.3495
763.0393
0.1 0.1 0.2
231.9
238.4335
395.2252
418.1744
471.8582
705.952
0.1 0.1 0.3
317.6036
326.1721
339.2608
349.1724
606.1775
633.3781
0.1 0.1 0.4
256.625
265.376
381.3244
400.8367
510.9147
689.5497
0.1 0.1 -0.5
147.5153
168.5914
369.3279
431.244
457.9671
748.5907
0.1 0.2 0.0
116.3952
195.6132
394.0782
495.1722
527.4054
745.1323
0.1 0.2 0.1
154.6583
235.8444
438.7324
496.3715
516.8699
733.8069
0.1 0.2 0.2
253.0214
298.0376
437.1957
461.1593
547.4737
702.6266
0.1 0.2 0.3
335.4541
344.7759
381.1969
383.9115
625.3885
645.0061
0.1 0.2 0.4
277.3862
312.7805
423.7873
438.7811
567.96
690.0895
0.1 0.2 -0.5
179.2608
253.1769
449.7777
501.399
508.14
727.5184
0.1 0.3 0.0
217.5368
272.2064
468.7164
561.8451
599.7013
683.4397
0.1 0.3 0.1
228.285
310.9243
491.103
559.0015
597.9723
706.46
0.1 0.3 0.2
274.248
361.4551
474.1896
498.5524
636.977
716.0531
0.1 0.3 0.3
343.9602
363.9176
424.9034
434.3643
674.78
685.3691
0.1 0.3 0.4
290.423
370.2987
456.9383
479.0875
647.0908
710.7704
0.1 0.3 -0.5
237.6782
326.5687
493.866
547.6453
606.8749
713.1985
0.1 0.4 0.0
320.0588
333.4489
517.4397
624.0964
624.4761
677.9853
0.1 0.4 0.1
309.223
365.171
521.9043
576.4946
660.4339
716.3671
0.1 0.4 0.2
315.8971
407.2923
484.4488
530.833
701.8513
747.1
0.1 0.4 0.3
364.8614
384.1411
468.3832
479.663
732.1987
738.3001
0.1 0.4 0.4
324.1461
413.3104
469.3666
517.2929
711.2099
747.9011
0.1 0.4 -0.5
308.1342
377.5681
517.7029
564.3385
671.6228
728.5119
0.2 0.2 0.0
183.2537
239.3455
457.9885
526.6009
576.4141
706.7333
0.2 0.2 0.1
203.4543
278.4282
478.8579
540.8756
567.9046
715.2162
0.2 0.2 0.2
268.9296
334.3967
458.051
489.0574
608.4632
710.7812
0.2 0.2 0.3
346.2083
363.2725
402.012
410.82
657.121
670.5634
0.2 0.2 0.4
288.7704
346.4556
443.1338
465.5756
621.286
702.9348
0.2 0.2 -0.5
218.1044
294.765
479.5644
537.2435
573.2896
717.2992
0.2 0.3 0.0
256.8742
321.752
475.5887
605.1488
624.6826
650.0349
0.2 0.3 0.1
258.5277
359.2748
508.616
564.2295
637.3088
695.3989
0.2 0.3 0.2
281.794
398.2504
492.3396
516.1167
666.707
719.3591
0.2 0.3 0.3
337.5629
358.7208
462.1153
470.9069
693.0088
700.3489
0.2 0.3 0.4
292.4268
398.417
474.0402
505.5178
673.8489
717.139
0.2 0.3 -0.5
262.5019
373.6116
516.7327
548.3485
644.9657
706.7811
0.2 0.4 0.0
328.6401
393.7109
510.1039
587.0449
636.9308
681.8777
0.2 0.4 0.1
319.8153
424.3729
540.6221
555.6494
680.1569
695.9676
0.2 0.4 0.2
314.0426
432.3084
509.6222
563.8199
705.6438
727.2183
0.2 0.4 0.3
342.058
359.9445
518.5531
527.1472
722.1997
725.5238
0.2 0.4 0.4
315.9587
416.825
507.965
556.0918
710.7736
729.5119
0.2 0.4 -0.5
317.4114
434.5063
533.3614
561.1577
688.9237
706.0849
0.3 0.3 0.0
329.0072
343.5785
520.5099
615.7328
630.6141
684.0718
0.3 0.3 0.1
316.2245
375.5399
524.9423
575.0315
665.0018
717.7787
0.3 0.3 0.2
318.8663
415.2028
485.1542
536.9194
705.8049
748.6289
0.3 0.3 0.3
364.0762
382.9426
477.3283
488.4601
735.7316
741.5165
0.3 0.3 0.4
325.944
418.5413
472.1268
524.4919
715.1072
749.874
0.3 0.3 -0.5
314.2147
387.7219
519.8206
564.9358
676.0373
729.5567

weight
   0.0000000   0.0000000   0.0000000   0.0020000   
   0.0000000   0.0000000   0.1000000   0.0040000   
   0.0000000   0.0000000   0.2000000   0.0040000   
   0.0000000   0.0000000   0.3000000   0.0040000   
   0.0000000   0.0000000   0.4000000   0.0040000   
   0.0000000   0.0000000  -0.5000000   0.0020000   
   0.0000000   0.1000000   0.0000000   0.0120000   
   0.0000000   0.1000000   0.1000000   0.0240000   
   0.0000000   0.1000000   0.2000000   0.0240000   
   0.0000000   0.1000000   0.3000000   0.0240000   
   0.0000000   0.1000000   0.4000000   0.0240000   
   0.0000000   0.1000000  -0.5000000   0.0120000   
   0.0000000   0.2000000   0.0000000   0.0120000   
   0.0000000   0.2000000   0.1000000   0.0240000   
   0.0000000   0.2000000   0.2000000   0.0240000   
   0.0000000   0.2000000   0.3000000   0.0240000   
   0.0000000   0.2000000   0.4000000   0.0240000   
   0.0000000   0.2000000  -0.5000000   0.0120000   
   0.0000000   0.3000000   0.0000000   0.0120000   
   0.0000000   0.3000000   0.1000000   0.0240000   
   0.0000000   0.3000000   0.2000000   0.0240000   
   0.0000000   0.3000000   0.3000000   0.0240000   
   0.0000000   0.3000000   0.4000000   0.0240000   
   0.0000000   0.3000000  -0.5000000   0.0120000   
   0.0000000   0.4000000   0.0000000   0.0120000   
   0.0000000   0.4000000   0.1000000   0.0240000   
   0.0000000   0.4000000   0.2000000   0.0240000   
   0.0000000   0.4000000   0.3000000   0.0240000   
   0.0000000   0.4000000   0.4000000   0.0240000   
   0.0000000   0.4000000  -0.5000000   0.0120000   
   0.0000000  -0.5000000   0.0000000   0.0060000   
   0.0000000  -0.5000000   0.1000000   0.0120000   
   0.0000000  -0.5000000   0.2000000   0.0120000   
   0.0000000  -0.5000000   0.3000000   0.0120000   
   0.0000000  -0.5000000   0.4000000   0.0120000   
   0.0000000  -0.5000000  -0.5000000   0.0060000   
   0.1000000   0.1000000   0.0000000   0.0120000   
   0.1000000   0.1000000   0.1000000   0.0240000   
   0.1000000   0.1000000   0.2000000   0.0240000   
   0.1000000   0.1000000   0.3000000   0.0240000   
   0.1000000   0.1000000   0.4000000   0.0240000   
   0.1000000   0.1000000  -0.5000000   0.0120000   
   0.1000000   0.2000000   0.0000000   0.0240000   
   0.1000000   0.2000000   0.1000000   0.0480000   
   0.1000000   0.2000000   0.2000000   0.0480000   
   0.1000000   0.2000000   0.3000000   0.0480000   
   0.1000000   0.2000000   0.4000000   0.0480000   
   0.1000000   0.2000000  -0.5000000   0.0240000   
   0.1000000   0.3000000   0.0000000   0.0240000   
   0.1000000   0.3000000   0.1000000   0.0480000   
   0.1000000   0.3000000   0.2000000   0.0480000   
   0.1000000   0.3000000   0.3000000   0.0480000   
   0.1000000   0.3000000   0.4000000   0.0480000   
   0.1000000   0.3000000  -0.5000000   0.0240000   
   0.1000000   0.4000000   0.0000000   0.0240000   
   0.1000000   0.4000000   0.1000000   0.0480000   
   0.1000000   0.4000000   0.2000000   0.0480000   
   0.1000000   0.4000000   0.3000000   0.0480000   
   0.1000000   0.4000000   0.4000000   0.0480000   
   0.1000000   0.4000000  -0.5000000   0.0240000   
   0.2000000   0.2000000   0.0000000   0.0120000   
   0.2000000   0.2000000   0.1000000   0.0240000   
   0.2000000   0.2000000   0.2000000   0.0240000   
   0.2000000   0.2000000   0.3000000   0.0240000   
   0.2000000   0.2000000   0.4000000   0.0240000   
   0.2000000   0.2000000  -0.5000000   0.0120000   
   0.2000000   0.3000000   0.0000000   0.0240000   
   0.2000000   0.3000000   0.1000000   0.0480000   
   0.2000000   0.3000000   0.2000000   0.0480000   
   0.2000000   0.3000000   0.3000000   0.0480000   
   0.2000000   0.3000000   0.4000000   0.0480000   
   0.2000000   0.3000000  -0.5000000   0.0240000   
   0.2000000   0.4000000   0.0000000   0.0120000   
   0.2000000   0.4000000   0.1000000   0.0240000   
   0.2000000   0.4000000   0.2000000   0.0240000   
   0.2000000   0.4000000   0.3000000   0.0240000   
   0.2000000   0.4000000   0.4000000   0.0240000   
   0.2000000   0.4000000  -0.5000000   0.0120000   
   0.3000000   0.3000000   0.0000000   0.0120000   
   0.3000000   0.3000000   0.1000000   0.0240000   
   0.3000000   0.3000000   0.2000000   0.0240000   
   0.3000000   0.3000000   0.3000000   0.0240000   
   0.3000000   0.3000000   0.4000000   0.0240000   
   0.3000000   0.3000000  -0.5000000   0.0120000   