Number of volumes (nv), q-vectors (nq), normal mode (np), formula units(nm)
10 84 6 1
P = 76.8300	V = 138.4189	E = -655.40773307000000	S_el = 0.00002329052500
0.0000000 0.0000000 0.0000000
0.0000
0.0000
0.0000
197.9300
197.9300
306.7408
0.0000000 0.0000000 0.1000000
48.0180
48.0180
100.5645
191.7548
191.7548
304.2315
0.0000000 0.0000000 0.2000000
91.5753
91.5753
172.2196
172.2196
186.7539
292.1586
0.0000000 0.0000000 0.3000000
130.9215
130.9215
140.5964
140.5964
249.3000
261.4440
0.0000000 0.0000000 0.4000000
102.3219
102.3219
164.8576
164.8576
205.7731
286.2190
0.0000000 0.0000000 -0.5000000
60.0098
60.0098
125.2121
187.9399
187.9399
302.3386
0.0000000 0.1000000 0.0000000
48.4586
54.1726
99.1354
203.8995
214.4818
303.9154
0.0000000 0.1000000 0.1000000
73.1479
80.4531
132.0786
198.3781
208.4575
301.6724
0.0000000 0.1000000 0.2000000
107.9533
117.2867
180.7221
189.8736
198.3077
290.9623
0.0000000 0.1000000 0.3000000
143.1460
151.9342
152.0225
160.7691
252.8629
263.6509
0.0000000 0.1000000 0.4000000
117.4076
126.6096
174.0307
183.0343
214.6168
285.6883
0.0000000 0.1000000 -0.5000000
81.8699
90.5962
148.9834
194.9481
204.7851
299.9907
0.0000000 0.2000000 0.0000000
94.3734
99.9059
181.7015
217.2244
248.8971
295.8411
0.0000000 0.2000000 0.1000000
110.3519
113.5814
197.9904
213.3317
241.5544
295.6882
0.0000000 0.2000000 0.2000000
139.3198
145.9106
199.1448
220.9729
234.6010
291.1162
0.0000000 0.2000000 0.3000000
168.4856
175.7566
181.7307
190.7329
268.2330
274.9699
0.0000000 0.2000000 0.4000000
147.1024
155.5010
193.7760
213.7459
244.4352
288.2255
0.0000000 0.2000000 -0.5000000
117.8584
120.8247
207.3223
210.0132
237.3032
295.2222
0.0000000 0.3000000 0.0000000
131.0146
135.2351
229.8102
237.4164
278.0412
283.8058
0.0000000 0.3000000 0.1000000
139.1557
142.2816
226.5680
249.2205
261.2212
294.4146
0.0000000 0.3000000 0.2000000
159.4337
164.9788
215.6904
233.6872
273.3805
300.0095
0.0000000 0.3000000 0.3000000
190.4054
191.1867
196.6477
200.4455
292.1655
295.3469
0.0000000 0.3000000 0.4000000
167.0352
171.8344
211.3922
225.3762
279.2170
299.8844
0.0000000 0.3000000 -0.5000000
143.4606
146.9765
224.5127
252.9069
257.1158
296.7204
0.0000000 0.4000000 0.0000000
146.7250
167.9720
237.4928
266.4350
270.0409
291.5998
0.0000000 0.4000000 0.1000000
156.2357
163.8358
234.4704
255.7828
277.6930
300.3506
0.0000000 0.4000000 0.2000000
167.2992
178.3250
224.7909
229.3701
295.9108
309.0026
0.0000000 0.4000000 0.3000000
189.6832
197.9723
201.9018
207.7685
307.7295
309.2609
0.0000000 0.4000000 0.4000000
171.5197
184.8140
221.0073
221.2305
299.9046
309.9827
0.0000000 0.4000000 -0.5000000
161.2583
163.1509
232.6070
249.6354
282.5912
303.2408
0.0000000 -0.5000000 0.0000000
151.1056
190.1445
240.7025
258.0744
277.6530
292.6569
0.0000000 -0.5000000 0.1000000
160.3219
179.9132
237.4594
246.7236
288.7571
300.5029
0.0000000 -0.5000000 0.2000000
171.9861
182.1195
222.5442
227.5557
304.5759
310.4204
0.0000000 -0.5000000 0.3000000
186.3199
193.1964
205.6828
211.1779
312.5260
313.1701
0.0000000 -0.5000000 0.4000000
173.5157
188.5625
214.5058
224.2623
307.5462
311.9418
0.0000000 -0.5000000 -0.5000000
165.3037
176.2618
235.5276
241.1919
293.3558
303.5571
0.1000000 0.1000000 0.0000000
67.9459
75.9902
135.2454
209.6399
227.6388
301.1547
0.1000000 0.1000000 0.1000000
90.5167
94.1031
158.8100
204.6788
221.4565
299.3594
0.1000000 0.1000000 0.2000000
121.4947
130.8980
188.5940
202.8579
210.7490
290.3534
0.1000000 0.1000000 0.3000000
153.6403
160.8515
166.7013
174.3988
257.3441
266.7179
0.1000000 0.1000000 0.4000000
130.1118
140.2222
182.5014
196.1063
224.4532
285.8261
0.1000000 0.1000000 -0.5000000
98.2725
103.8188
171.3233
201.5895
217.7341
297.9775
0.1000000 0.2000000 0.0000000
104.7140
118.5551
189.5783
228.1241
253.1849
293.2630
0.1000000 0.2000000 0.1000000
116.7644
129.4964
205.0744
225.4228
244.8392
294.1762
0.1000000 0.2000000 0.2000000
145.7854
153.7884
209.6872
222.9237
242.7387
291.7090
0.1000000 0.2000000 0.3000000
176.5617
177.6787
192.7481
194.8794
272.4555
278.3225
0.1000000 0.2000000 0.4000000
154.5812
160.8015
205.3127
215.5611
251.4099
289.4706
0.1000000 0.2000000 -0.5000000
123.3269
135.1905
211.5215
224.9705
240.1832
294.2107
0.1000000 0.3000000 0.0000000
141.5823
151.0866
225.9609
250.9379
276.4735
281.4792
0.1000000 0.3000000 0.1000000
141.8310
161.1786
231.9549
253.3668
260.1820
293.1406
0.1000000 0.3000000 0.2000000
155.3535
182.3726
224.0751
234.2920
274.6679
299.4200
0.1000000 0.3000000 0.3000000
182.9758
190.3352
210.4013
214.9401
292.4020
295.3946
0.1000000 0.3000000 0.4000000
161.7437
188.1910
218.1097
228.9787
280.1298
299.4577
0.1000000 0.3000000 -0.5000000
143.6419
166.1884
232.2403
250.8748
260.2974
295.6442
0.1000000 0.4000000 0.0000000
167.3513
172.7894
242.6986
267.3691
268.4407
289.4861
0.1000000 0.4000000 0.1000000
162.8955
179.2867
241.0330
255.1527
277.3680
298.0925
0.1000000 0.4000000 0.2000000
162.6730
198.2630
220.7891
242.5453
294.0210
306.8482
0.1000000 0.4000000 0.3000000
181.7289
189.0576
221.6149
226.6427
305.6107
307.1358
0.1000000 0.4000000 0.4000000
165.8960
202.9080
214.2883
238.9006
297.8988
307.8433
0.1000000 0.4000000 -0.5000000
161.3066
183.6156
237.6377
251.5328
281.5929
301.0080
0.2000000 0.2000000 0.0000000
128.8296
136.0664
219.0887
239.3011
271.1769
286.0140
0.2000000 0.2000000 0.1000000
133.3124
146.9706
225.3850
242.9221
257.8329
292.9006
0.2000000 0.2000000 0.2000000
153.3215
170.0715
217.9437
232.0923
265.7073
296.8506
0.2000000 0.2000000 0.3000000
183.1651
188.8067
201.4776
205.6245
286.6435
290.3879
0.2000000 0.2000000 0.4000000
160.8550
176.7077
213.4011
224.6886
272.0529
296.2974
0.2000000 0.2000000 -0.5000000
136.9961
152.3986
225.3397
246.8084
252.5283
294.7229
0.2000000 0.3000000 0.0000000
157.5865
175.0667
231.8390
266.4982
275.7195
277.6083
0.2000000 0.3000000 0.1000000
152.9912
183.2187
241.3231
253.7921
269.0454
292.6565
0.2000000 0.3000000 0.2000000
157.6226
200.5361
225.9460
243.7539
282.2364
300.9159
0.2000000 0.3000000 0.3000000
180.6192
188.4042
226.1889
230.6297
296.7515
299.0590
0.2000000 0.3000000 0.4000000
162.1721
203.2904
220.3478
241.1601
286.7300
301.4768
0.2000000 0.3000000 -0.5000000
152.4109
187.4693
242.9893
247.8421
271.1104
295.7003
0.2000000 0.4000000 0.0000000
184.2738
202.1811
245.5706
262.1339
277.6332
284.6667
0.2000000 0.4000000 0.1000000
172.9464
209.2160
244.2146
256.8828
282.6738
292.4478
0.2000000 0.4000000 0.2000000
164.4064
211.7544
229.6690
260.6823
291.8998
302.4690
0.2000000 0.4000000 0.3000000
177.0152
183.4942
245.8575
249.8949
302.0378
303.3971
0.2000000 0.4000000 0.4000000
165.5649
204.5565
233.5573
258.7467
295.1518
303.6650
0.2000000 0.4000000 -0.5000000
169.1632
212.6115
237.7183
259.8316
284.0759
295.7722
0.3000000 0.3000000 0.0000000
171.6185
176.4500
244.3630
266.1667
269.4660
289.7389
0.3000000 0.3000000 0.1000000
165.4367
183.4888
241.9201
254.9848
278.7203
297.9786
0.3000000 0.3000000 0.2000000
163.1686
201.9079
219.8278
245.0289
294.8825
306.8386
0.3000000 0.3000000 0.3000000
180.7732
187.9383
224.9543
229.8683
305.9867
307.4090
0.3000000 0.3000000 0.4000000
165.9058
205.2547
214.3969
241.6422
298.6221
307.8943
0.3000000 0.3000000 -0.5000000
163.3055
187.7740
237.6665
252.4016
282.8325
300.8893
P = 273.2100	V = 130.1411	E = -655.40670336000000	S_el = 0.00002116144250
0.0000000 0.0000000 0.0000000
0.0000
0.0000
0.0000
221.3907
221.3907
354.0171
0.0000000 0.0000000 0.1000000
56.8317
56.8317
112.5510
214.6654
214.6654
349.9135
0.0000000 0.0000000 0.2000000
106.0733
106.0733
193.3145
193.3145
210.1398
333.6569
0.0000000 0.0000000 0.3000000
148.6040
148.6040
159.0422
159.0422
282.2817
296.5746
0.0000000 0.0000000 0.4000000
117.8419
117.8419
185.2624
185.2624
231.9896
326.2357
0.0000000 0.0000000 -0.5000000
70.7236
70.7236
140.3994
210.4810
210.4810
347.1228
0.0000000 0.1000000 0.0000000
53.4222
61.1345
112.3841
228.1592
240.3316
350.5475
0.0000000 0.1000000 0.1000000
83.8153
89.9707
149.6012
222.0974
233.6721
346.8350
0.0000000 0.1000000 0.2000000
123.4048
132.8608
202.7047
213.1178
223.9422
332.3228
0.0000000 0.1000000 0.3000000
161.7889
171.3419
171.4456
181.0747
286.6497
299.3285
0.0000000 0.1000000 0.4000000
133.8509
143.3931
195.3550
205.5261
242.5950
325.7171
0.0000000 0.1000000 -0.5000000
93.9934
101.9798
168.5150
218.3118
229.5887
344.3313
0.0000000 0.2000000 0.0000000
104.1978
112.7819
206.3478
243.4551
280.1260
340.5874
0.0000000 0.2000000 0.1000000
123.4325
127.2322
224.4183
239.4146
271.8238
339.4538
0.0000000 0.2000000 0.2000000
157.1913
163.0634
223.2454
248.3614
266.1816
332.5011
0.0000000 0.2000000 0.3000000
189.3988
197.4276
203.8331
214.0649
304.8422
312.7776
0.0000000 0.2000000 0.4000000
165.8517
174.0616
217.2766
240.1223
277.4223
328.7826
0.0000000 0.2000000 -0.5000000
132.7316
134.7801
234.5776
236.0743
266.9770
338.4652
0.0000000 0.3000000 0.0000000
147.8473
149.8974
258.3387
270.3683
314.9576
325.6127
0.0000000 0.3000000 0.1000000
155.2900
159.6625
254.5533
283.2632
296.4637
336.5870
0.0000000 0.3000000 0.2000000
178.2317
185.3396
242.1275
263.7565
311.0587
342.5565
0.0000000 0.3000000 0.3000000
213.6905
214.6031
220.7991
225.3589
332.8730
336.6682
0.0000000 0.3000000 0.4000000
187.0137
192.9856
237.2543
254.0744
317.7891
342.2720
0.0000000 0.3000000 -0.5000000
159.6851
165.4875
252.1719
286.2327
292.6724
339.1327
0.0000000 0.4000000 0.0000000
166.1051
186.6168
267.9643
304.4361
308.2989
332.9871
0.0000000 0.4000000 0.1000000
176.2379
182.8142
264.3794
290.8223
317.2235
343.5614
0.0000000 0.4000000 0.2000000
187.8536
200.3723
253.0965
259.7405
338.0423
353.7892
0.0000000 0.4000000 0.3000000
213.8461
223.6394
226.6415
233.5628
352.0571
353.9303
0.0000000 0.4000000 0.4000000
192.8550
207.6250
248.7147
250.2485
342.7385
354.9207
0.0000000 0.4000000 -0.5000000
181.6261
182.4259
262.1802
283.4976
322.7574
347.0106
0.0000000 -0.5000000 0.0000000
171.4470
212.1088
272.3654
293.0973
317.9744
336.7872
0.0000000 -0.5000000 0.1000000
181.2082
201.6797
268.5540
280.1842
330.5137
345.5428
0.0000000 -0.5000000 0.2000000
194.0818
204.9720
252.7599
256.5974
349.1157
356.9382
0.0000000 -0.5000000 0.3000000
210.9009
218.8039
231.5723
237.9124
359.0306
359.9136
0.0000000 -0.5000000 0.4000000
196.0457
212.1853
243.0003
253.2367
352.7556
358.6870
0.0000000 -0.5000000 -0.5000000
186.5802
197.9614
266.2765
273.8123
335.8375
349.0424
0.1000000 0.1000000 0.0000000
74.9417
85.7239
153.4077
234.7320
255.4624
347.1494
0.1000000 0.1000000 0.1000000
102.5176
104.8248
180.1569
229.2461
248.5471
344.0293
0.1000000 0.1000000 0.2000000
137.9193
147.0728
211.4483
227.7425
238.5858
331.6505
0.1000000 0.1000000 0.3000000
173.1690
180.9602
187.5008
196.0263
292.0340
303.0441
0.1000000 0.1000000 0.4000000
147.4829
157.7232
204.7408
220.1626
254.2161
325.9532
0.1000000 0.1000000 -0.5000000
111.7283
115.8611
194.2329
225.8277
244.3609
341.9130
0.1000000 0.2000000 0.0000000
115.6495
133.5704
214.7788
256.7361
285.2072
337.3891
0.1000000 0.2000000 0.1000000
129.4558
145.9085
231.5654
254.2648
275.7787
337.5170
0.1000000 0.2000000 0.2000000
162.7739
173.0544
235.0092
250.7278
275.7435
333.1683
0.1000000 0.2000000 0.3000000
197.8708
199.2063
216.5408
218.9350
309.8378
316.7529
0.1000000 0.2000000 0.4000000
172.8622
180.8486
230.2101
242.3025
285.6149
330.2493
0.1000000 0.2000000 -0.5000000
137.0268
152.3273
237.9153
254.6612
270.4651
337.1457
0.1000000 0.3000000 0.0000000
156.7272
170.3146
254.6511
285.4392
313.3520
322.6838
0.1000000 0.3000000 0.1000000
157.6401
181.2546
260.4937
287.8902
295.9443
335.0541
0.1000000 0.3000000 0.2000000
173.5320
204.6682
252.0564
264.0876
312.9082
341.9727
0.1000000 0.3000000 0.3000000
205.0751
213.3676
236.7346
241.7021
333.3551
336.9102
0.1000000 0.3000000 0.4000000
180.9019
211.1152
245.5352
257.7034
319.1461
341.9052
0.1000000 0.3000000 -0.5000000
159.8778
186.7948
260.7328
283.9722
296.8400
337.8795
0.1000000 0.4000000 0.0000000
188.9037
192.0390
273.6387
305.5656
306.3498
330.6875
0.1000000 0.4000000 0.1000000
181.9531
201.6981
271.8507
289.6466
317.3108
340.9205
0.1000000 0.4000000 0.2000000
182.3038
222.8224
249.5252
273.9370
336.0754
351.2957
0.1000000 0.4000000 0.3000000
204.3031
212.6712
249.8101
255.5254
349.6821
351.5272
0.1000000 0.4000000 0.4000000
186.1162
227.8433
242.2660
269.6367
340.5860
352.4581
0.1000000 0.4000000 -0.5000000
180.2552
206.6224
268.2373
285.0169
322.0153
344.3960
0.2000000 0.2000000 0.0000000
142.4979
153.4564
247.2711
271.1786
306.6910
328.3651
0.2000000 0.2000000 0.1000000
148.1209
165.3145
253.0464
276.1250
291.9506
335.2141
0.2000000 0.2000000 0.2000000
171.2603
190.9510
244.6009
261.6290
302.2843
338.9547
0.2000000 0.2000000 0.3000000
205.2579
211.5940
226.5137
231.1271
326.4388
330.8823
0.2000000 0.2000000 0.4000000
179.9159
198.3523
239.5619
253.0033
309.5459
338.1275
0.2000000 0.2000000 -0.5000000
152.4506
171.3479
252.8103
279.9878
286.3880
337.0845
0.2000000 0.3000000 0.0000000
174.6120
197.1927
261.4186
304.0593
314.8046
315.8852
0.2000000 0.3000000 0.1000000
170.1200
206.0351
271.2865
288.0779
307.5244
334.2436
0.2000000 0.3000000 0.2000000
176.1171
224.8564
255.6137
274.1145
322.2577
343.9136
0.2000000 0.3000000 0.3000000
202.5257
211.3875
254.7216
259.6095
338.8546
341.5818
0.2000000 0.3000000 0.4000000
181.4207
227.7489
249.2073
271.2526
327.3318
344.5311
0.2000000 0.3000000 -0.5000000
169.7010
210.6877
273.3083
280.6721
309.9392
337.8495
0.2000000 0.4000000 0.0000000
204.7273
228.1153
277.4440
298.1875
316.6589
326.0263
0.2000000 0.4000000 0.1000000
192.8315
235.6750
277.0253
289.8132
324.1333
334.1728
0.2000000 0.4000000 0.2000000
184.0985
238.0578
260.1487
294.2972
334.3102
346.1843
0.2000000 0.4000000 0.3000000
198.8546
206.2982
277.7403
282.3146
345.7778
347.3643
0.2000000 0.4000000 0.4000000
185.5800
230.1389
264.1348
292.2213
337.9304
347.6347
0.2000000 0.4000000 -0.5000000
188.8302
239.2795
269.6626
292.9895
325.8101
338.1376
0.3000000 0.3000000 0.0000000
193.5842
196.3104
275.5943
303.3526
308.2074
331.2598
0.3000000 0.3000000 0.1000000
184.7956
206.5167
273.0782
289.2588
318.9727
340.9160
0.3000000 0.3000000 0.2000000
182.8940
226.9295
248.6077
276.8163
337.2028
351.3977
0.3000000 0.3000000 0.3000000
203.2602
211.4518
253.6957
259.2957
350.2531
351.9765
0.3000000 0.3000000 0.4000000
186.1585
230.4480
242.5814
272.8437
341.5563
352.6364
0.3000000 0.3000000 -0.5000000
182.5150
211.3719
268.5240
285.8178
323.5640
344.3711
P = 570.4300	V = 121.3918	E = -655.39101952000000	S_el = 0.00001894500250
0.0000000 0.0000000 0.0000000
0.0000
0.0000
0.0000
247.4325
247.4325
410.1445
0.0000000 0.0000000 0.1000000
63.7934
63.7934
127.3432
239.9780
239.9780
404.0358
0.0000000 0.0000000 0.2000000
119.0400
119.0400
216.3099
216.3099
238.3760
382.6285
0.0000000 0.0000000 0.3000000
166.5810
166.5810
178.2419
178.2419
321.3896
338.1276
0.0000000 0.0000000 0.4000000
132.2581
132.2581
207.3487
207.3487
263.4674
373.4233
0.0000000 0.0000000 -0.5000000
79.4306
79.4306
159.0412
235.3250
235.3250
400.1052
0.0000000 0.1000000 0.0000000
59.4777
68.1298
127.2625
255.2029
269.2879
405.8462
0.0000000 0.1000000 0.1000000
93.6744
100.3292
169.6419
248.4313
261.7981
400.3090
0.0000000 0.1000000 0.2000000
138.1905
148.6814
226.8254
238.7659
254.2260
381.1206
0.0000000 0.1000000 0.3000000
181.1878
191.8883
192.0514
202.8798
326.5077
341.3950
0.0000000 0.1000000 0.4000000
149.9480
160.5750
218.6165
230.2301
275.6752
372.8954
0.0000000 0.1000000 -0.5000000
105.1616
113.8930
191.1778
244.1947
257.1969
396.7700
0.0000000 0.2000000 0.0000000
116.1170
125.8813
234.0966
272.9148
315.5346
393.5010
0.0000000 0.2000000 0.1000000
138.1136
141.6263
255.2593
267.7159
306.0691
391.1478
0.0000000 0.2000000 0.2000000
175.7434
182.3863
250.0119
279.2157
302.5383
381.1475
0.0000000 0.2000000 0.3000000
211.9465
220.9932
228.5790
240.2217
347.4720
356.9092
0.0000000 0.2000000 0.4000000
185.5094
194.8751
243.2721
269.8069
315.5408
376.3605
0.0000000 0.2000000 -0.5000000
148.6004
150.1357
263.9735
266.8264
300.5075
389.4839
0.0000000 0.3000000 0.0000000
165.4755
167.3089
290.5383
307.6056
357.0467
374.9034
0.0000000 0.3000000 0.1000000
174.0149
178.3009
286.1054
322.0169
336.8731
385.9859
0.0000000 0.3000000 0.2000000
200.0582
207.3339
271.7512
298.3087
354.3779
392.0976
0.0000000 0.3000000 0.3000000
239.3302
241.7791
247.2618
253.9898
379.9582
384.5360
0.0000000 0.3000000 0.4000000
210.1184
215.9629
266.1487
287.0467
362.2198
391.5531
0.0000000 0.3000000 -0.5000000
178.8259
185.1072
283.3247
324.3341
333.4274
388.7156
0.0000000 0.4000000 0.0000000
186.4606
208.9649
302.4449
347.4713
353.3160
380.2952
0.0000000 0.4000000 0.1000000
197.6597
205.4259
298.2064
331.6028
362.3982
393.4714
0.0000000 0.4000000 0.2000000
212.0255
224.5748
284.9422
295.0268
386.5596
405.6723
0.0000000 0.4000000 0.3000000
241.9472
252.5472
255.0187
262.2896
403.3104
405.6173
0.0000000 0.4000000 0.4000000
217.8509
232.7609
279.8085
283.9451
392.1392
406.9736
0.0000000 0.4000000 -0.5000000
203.6772
205.2596
295.6012
322.8828
368.7552
397.6447
0.0000000 -0.5000000 0.0000000
193.0462
238.3561
308.2474
334.2633
363.6579
387.3031
0.0000000 -0.5000000 0.1000000
203.7827
227.5432
303.7639
319.3557
378.1860
397.4684
0.0000000 -0.5000000 0.2000000
220.0953
230.1997
287.2640
290.1186
400.3892
410.8461
0.0000000 -0.5000000 0.3000000
239.6363
248.7288
260.3936
267.7376
412.8208
414.0346
0.0000000 -0.5000000 0.4000000
222.5022
238.3355
276.8995
285.2064
404.8872
412.8686
0.0000000 -0.5000000 -0.5000000
209.7354
223.7024
301.0637
311.9798
384.4666
401.5915
0.1000000 0.1000000 0.0000000
83.4582
95.6079
173.7966
262.8119
286.8000
401.6355
0.1000000 0.1000000 0.1000000
114.5774
116.7335
204.3019
256.6399
278.9486
396.8820
0.1000000 0.1000000 0.2000000
154.3001
164.4213
236.6663
255.4258
271.0022
380.3361
0.1000000 0.1000000 0.3000000
193.8285
202.5248
210.0968
219.6907
332.7537
345.7270
0.1000000 0.1000000 0.4000000
165.0746
176.4748
229.1598
246.8431
289.0048
373.1955
0.1000000 0.1000000 -0.5000000
124.8828
129.2514
220.3806
252.7929
274.1869
393.8423
0.1000000 0.2000000 0.0000000
128.8772
149.2508
242.8820
289.1826
321.5389
389.5280
0.1000000 0.2000000 0.1000000
144.3218
163.0550
261.1716
287.1355
310.8346
388.6478
0.1000000 0.2000000 0.2000000
181.9258
193.5213
263.3419
282.1606
313.6858
381.8093
0.1000000 0.2000000 0.3000000
221.3796
222.8185
243.0629
245.9671
353.2765
361.5148
0.1000000 0.2000000 0.4000000
193.3645
202.3029
257.9990
272.5042
325.0766
377.9924
0.1000000 0.2000000 -0.5000000
152.8679
170.2710
267.3868
288.6662
304.7169
387.7301
0.1000000 0.3000000 0.0000000
174.9025
190.7485
286.6922
324.7898
355.3552
371.2330
0.1000000 0.3000000 0.1000000
176.1871
202.9508
292.6797
327.2079
337.0327
384.0382
0.1000000 0.3000000 0.2000000
194.4402
229.1828
283.6746
298.2386
356.8955
391.4451
0.1000000 0.3000000 0.3000000
230.1538
239.3540
266.4618
271.8993
380.7179
384.9824
0.1000000 0.3000000 0.4000000
202.8471
236.4219
276.6325
290.4589
364.1053
391.1960
0.1000000 0.3000000 -0.5000000
178.8149
209.1692
292.9109
321.9273
338.6532
387.1520
0.1000000 0.4000000 0.0000000
212.4195
214.6597
308.5530
349.2722
350.5211
377.8012
0.1000000 0.4000000 0.1000000
204.0197
226.6095
306.7722
329.6735
362.9911
390.3304
0.1000000 0.4000000 0.2000000
205.0899
250.2654
282.4347
309.8221
384.5126
402.7202
0.1000000 0.4000000 0.3000000
230.2380
239.7228
281.7133
288.2478
400.6316
402.8732
0.1000000 0.4000000 0.4000000
209.5291
255.8255
274.2825
304.6631
389.8229
404.0817
0.1000000 0.4000000 -0.5000000
202.2831
232.1815
302.9955
323.7509
368.3280
394.5219
0.2000000 0.2000000 0.0000000
158.9621
171.6812
278.6822
307.5388
347.1263
378.3157
0.2000000 0.2000000 0.1000000
165.4425
184.9224
284.1704
314.0133
330.8514
384.9016
0.2000000 0.2000000 0.2000000
191.7382
213.7255
274.5528
295.4053
344.3281
388.0601
0.2000000 0.2000000 0.3000000
230.0831
237.0100
254.7248
259.9574
372.4986
377.8320
0.2000000 0.2000000 0.4000000
201.5769
222.0892
268.9258
285.3486
352.7346
386.8269
0.2000000 0.2000000 -0.5000000
170.3912
191.7089
283.7574
317.5467
325.3943
386.7241
0.2000000 0.3000000 0.0000000
194.9158
221.2140
294.4204
347.1766
358.5340
361.5677
0.2000000 0.3000000 0.1000000
190.2535
231.0114
305.1402
327.5701
351.5479
382.5228
0.2000000 0.3000000 0.2000000
197.5344
251.8492
289.6882
308.5667
368.3313
393.7303
0.2000000 0.3000000 0.3000000
227.5699
237.5731
286.9977
292.3988
387.5282
390.7717
0.2000000 0.3000000 0.4000000
203.6301
255.0712
282.2086
305.3945
374.1467
394.3916
0.2000000 0.3000000 -0.5000000
189.9390
236.1906
307.5874
318.5645
354.3958
386.7505
0.2000000 0.4000000 0.0000000
228.8897
256.8174
313.1543
340.4986
360.9964
373.4708
0.2000000 0.4000000 0.1000000
216.0607
265.0884
314.9788
327.1714
371.6260
382.1782
0.2000000 0.4000000 0.2000000
207.0085
267.8429
294.8074
332.6246
383.1668
396.6295
0.2000000 0.4000000 0.3000000
224.0226
232.4822
313.9599
319.1813
396.3397
398.1900
0.2000000 0.4000000 0.4000000
208.8340
259.2506
298.8112
330.3741
387.2851
398.4064
0.2000000 0.4000000 -0.5000000
211.7695
268.9784
306.5118
330.7242
373.6444
386.9382
0.3000000 0.3000000 0.0000000
217.9009
219.3591
310.8383
347.0582
352.1403
378.7614
0.3000000 0.3000000 0.1000000
207.2401
232.1360
308.4300
329.0141
365.0020
390.4183
0.3000000 0.3000000 0.2000000
205.8003
254.9354
281.6090
313.1193
385.9482
402.9316
0.3000000 0.3000000 0.3000000
229.1184
238.4163
286.2402
292.6589
401.4281
403.5234
0.3000000 0.3000000 0.4000000
209.6250
258.8448
274.7716
308.3940
391.0802
404.3927
0.3000000 0.3000000 -0.5000000
204.8544
237.6261
303.6745
324.3915
370.2312
394.5737
P = 817.3800	V = 115.9289	E = -655.37083791000000	S_el = 0.00001759297750
0.0000000 0.0000000 0.0000000
0.0000
0.0000
0.0000
264.8965
264.8965
449.3731
0.0000000 0.0000000 0.1000000
67.5300
67.5300
137.8192
256.9149
256.9149
441.8074
0.0000000 0.0000000 0.2000000
126.6728
126.6728
231.5750
231.5750
258.2009
416.7023
0.0000000 0.0000000 0.3000000
178.0486
178.0486
190.6420
190.6420
348.6457
367.0334
0.0000000 0.0000000 0.4000000
140.9408
140.9408
221.9605
221.9605
285.4800
406.2531
0.0000000 0.0000000 -0.5000000
84.1905
84.1905
172.1679
251.9342
251.9342
437.0586
0.0000000 0.1000000 0.0000000
63.7203
72.5706
137.3561
273.3768
288.7826
444.4615
0.0000000 0.1000000 0.1000000
99.6202
107.2142
183.3633
266.0923
280.6991
437.6107
0.0000000 0.1000000 0.2000000
147.2895
158.7823
242.8887
255.8914
275.2833
415.0716
0.0000000 0.1000000 0.3000000
193.7256
205.2834
205.5096
217.2027
354.2195
370.6169
0.0000000 0.1000000 0.4000000
159.9733
171.5689
234.0645
246.6912
298.6541
405.7118
0.0000000 0.1000000 -0.5000000
111.8630
121.6272
206.7659
261.5392
275.7372
433.3330
0.0000000 0.2000000 0.0000000
124.4355
134.2648
252.9507
292.7865
339.5204
430.3658
0.0000000 0.2000000 0.1000000
147.9956
151.0399
276.3867
286.6492
329.2528
427.1495
0.0000000 0.2000000 0.2000000
187.7271
195.4324
267.9443
300.0335
327.5064
414.9350
0.0000000 0.2000000 0.3000000
226.8092
236.5871
245.2134
257.8017
376.9150
387.4163
0.0000000 0.2000000 0.4000000
198.2601
208.8699
260.6563
289.8343
341.7422
409.3762
0.0000000 0.2000000 -0.5000000
158.9786
160.4044
283.3329
288.2172
323.2137
425.0027
0.0000000 0.3000000 0.0000000
176.9619
179.3286
312.3113
332.9467
385.7057
409.1436
0.0000000 0.3000000 0.1000000
186.8247
190.6094
307.4231
348.3908
364.5326
420.2392
0.0000000 0.3000000 0.2000000
215.0213
221.8777
291.6914
321.8852
384.1018
426.3357
0.0000000 0.3000000 0.3000000
256.4403
260.3512
264.9124
273.5025
412.3506
417.4898
0.0000000 0.3000000 0.4000000
225.9083
231.1846
285.5754
309.5581
392.7138
425.5788
0.0000000 0.3000000 -0.5000000
192.0350
197.9538
304.3641
350.2821
361.3593
423.0622
0.0000000 0.4000000 0.0000000
199.7923
224.4392
325.7829
376.7806
384.4993
412.6550
0.0000000 0.4000000 0.1000000
211.8264
221.0951
321.0935
359.6601
393.3245
427.8155
0.0000000 0.4000000 0.2000000
228.7135
240.7588
306.4321
319.2760
419.8590
441.4308
0.0000000 0.4000000 0.3000000
261.2455
271.9907
274.4720
281.5884
438.5561
441.1780
0.0000000 0.4000000 0.4000000
235.0652
249.5815
300.7748
307.1062
426.0554
442.8374
0.0000000 0.4000000 -0.5000000
218.3264
221.0584
318.2088
349.9882
400.2557
432.5130
0.0000000 -0.5000000 0.0000000
207.3187
256.5067
332.5405
362.7144
394.7997
421.9393
0.0000000 -0.5000000 0.1000000
218.8280
245.4598
327.5956
346.3798
410.7719
433.2082
0.0000000 -0.5000000 0.2000000
238.0959
247.1593
310.6072
313.2016
435.5505
448.0321
0.0000000 -0.5000000 0.3000000
259.4314
269.3246
279.7996
287.8179
449.8204
451.2911
0.0000000 -0.5000000 0.4000000
240.7776
255.9158
300.3093
306.7414
440.6593
450.2320
0.0000000 -0.5000000 -0.5000000
225.2071
241.5490
324.6061
338.3163
417.7276
437.7924
0.1000000 0.1000000 0.0000000
89.4164
101.9228
187.6250
281.7224
307.9498
439.6521
0.1000000 0.1000000 0.1000000
122.2286
124.7359
220.7367
275.0578
299.4365
433.7318
0.1000000 0.1000000 0.2000000
164.6375
175.8372
253.5063
273.9852
293.3910
414.1978
0.1000000 0.1000000 0.3000000
207.3026
216.6825
225.0453
235.3922
360.9951
375.3291
0.1000000 0.1000000 0.4000000
176.2566
188.7816
245.4290
264.7078
313.0458
406.0387
0.1000000 0.1000000 -0.5000000
133.0823
138.2275
238.2200
270.9156
294.2774
430.0354
0.1000000 0.2000000 0.0000000
138.0941
159.4304
261.7994
311.2791
346.1523
425.8286
0.1000000 0.2000000 0.1000000
154.5512
174.1839
281.0562
309.6375
334.5733
424.2328
0.1000000 0.2000000 0.2000000
194.8547
206.9084
282.3887
303.4152
339.7288
415.5613
0.1000000 0.2000000 0.3000000
237.0467
238.5094
260.8586
264.1744
383.2458
392.4249
0.1000000 0.2000000 0.4000000
207.1456
216.3744
276.6612
292.9261
352.1863
411.0881
0.1000000 0.2000000 -0.5000000
163.6921
181.9175
287.1669
311.9734
327.9151
422.9191
0.1000000 0.3000000 0.0000000
187.5066
204.1515
308.2377
351.6778
383.9564
404.9405
0.1000000 0.3000000 0.1000000
188.9470
217.3032
314.4179
353.9260
365.2472
417.9581
0.1000000 0.3000000 0.2000000
208.6981
245.5249
305.0288
321.5354
387.0974
425.6046
0.1000000 0.3000000 0.3000000
247.1290
256.8756
286.5665
292.3071
413.3029
418.0718
0.1000000 0.3000000 0.4000000
217.7661
253.3097
297.6823
312.7580
394.9805
425.2030
0.1000000 0.3000000 -0.5000000
191.8097
223.9939
314.6540
347.8244
367.3000
421.2397
0.1000000 0.4000000 0.0000000
228.0313
230.2497
332.1521
379.1396
380.9942
410.0477
0.1000000 0.4000000 0.1000000
219.1169
243.3539
330.4047
357.1885
394.2713
424.3032
0.1000000 0.4000000 0.2000000
220.7140
268.7412
304.8548
334.2800
417.7698
438.1313
0.1000000 0.4000000 0.3000000
247.9235
258.1275
303.3439
310.4290
435.6669
438.1914
0.1000000 0.4000000 0.4000000
225.5534
274.6868
296.1133
328.4939
423.6375
439.6232
0.1000000 0.4000000 -0.5000000
217.3915
249.3481
326.5453
350.3533
400.0576
429.0086
0.2000000 0.2000000 0.0000000
170.4022
183.5463
299.7764
332.4060
374.6210
413.0315
0.2000000 0.2000000 0.1000000
177.3466
197.8191
305.1692
339.8341
357.3983
419.3974
0.2000000 0.2000000 0.2000000
205.6516
228.8471
294.7334
318.3932
373.1820
422.0278
0.2000000 0.2000000 0.3000000
246.7989
254.0515
273.7729
279.4551
404.2021
410.1718
0.2000000 0.2000000 0.4000000
216.2420
237.8764
288.7062
307.3652
382.3838
420.4787
0.2000000 0.2000000 -0.5000000
182.6744
205.1245
304.6488
342.9723
352.2208
421.1539
0.2000000 0.3000000 0.0000000
208.9546
237.1382
316.6067
376.6376
388.0985
393.5087
0.2000000 0.3000000 0.1000000
204.1127
247.6344
328.0238
354.5807
381.7222
415.8198
0.2000000 0.3000000 0.2000000
212.1854
269.9174
312.9563
331.9118
399.9867
428.0531
0.2000000 0.3000000 0.3000000
244.5892
255.3210
308.8549
314.5828
421.0083
424.6122
0.2000000 0.3000000 0.4000000
218.7835
273.4096
304.7210
328.5165
406.3168
428.7311
0.2000000 0.3000000 -0.5000000
203.8495
253.1820
330.7479
344.5401
384.8702
420.4627
0.2000000 0.4000000 0.0000000
245.5297
276.0422
337.2283
369.7567
391.1517
406.0139
0.2000000 0.4000000 0.1000000
232.0105
284.8214
340.9092
352.6208
404.1438
415.1280
0.2000000 0.4000000 0.2000000
222.7259
287.9808
318.4244
358.6445
416.7332
431.2942
0.2000000 0.4000000 0.3000000
241.2109
250.3229
338.5445
344.1968
431.1075
433.1348
0.2000000 0.4000000 0.4000000
224.7707
279.0011
322.3838
356.2743
421.2048
433.3008
0.2000000 0.4000000 -0.5000000
227.5227
288.9102
331.7701
356.3567
406.4201
420.4357
0.3000000 0.3000000 0.0000000
234.1068
235.2096
334.6604
377.3081
382.0459
411.2881
0.3000000 0.3000000 0.1000000
222.6050
249.3636
332.3636
356.3465
396.5115
424.4450
0.3000000 0.3000000 0.2000000
221.5110
273.8026
304.1205
337.8410
419.4154
438.4109
0.3000000 0.3000000 0.3000000
246.7609
256.7736
308.3133
315.2821
436.6178
438.9785
0.3000000 0.3000000 0.4000000
225.6931
278.0246
296.7126
332.5717
425.0914
440.0199
0.3000000 0.3000000 -0.5000000
220.1803
255.2722
327.5229
350.8607
402.1980
429.1032
P = 1064.9400	V = 111.4903	E = -655.34685601000000	S_el = 0.00001651905750
0.0000000 0.0000000 0.0000000
0.0000
0.0000
0.0000
280.0279
280.0279
484.0719
0.0000000 0.0000000 0.1000000
70.5101
70.5101
147.0955
271.5801
271.5801
475.1883
0.0000000 0.0000000 0.2000000
132.9712
132.9712
244.7460
244.7460
275.7205
446.7580
0.0000000 0.0000000 0.3000000
187.7921
187.7921
201.2163
201.2163
372.6907
392.5036
0.0000000 0.0000000 0.4000000
148.1521
148.1521
234.5563
234.5563
304.8855
435.2168
0.0000000 0.0000000 -0.5000000
87.9977
87.9977
183.7397
266.3156
266.3156
469.7111
0.0000000 0.1000000 0.0000000
67.4476
76.3433
146.1753
289.1341
305.6873
478.5989
0.0000000 0.1000000 0.1000000
104.5801
113.1672
195.3913
281.3944
297.0823
470.5669
0.0000000 0.1000000 0.2000000
154.9231
167.3770
256.7617
270.6926
293.8369
445.0197
0.0000000 0.1000000 0.3000000
204.4281
216.7455
217.0392
229.4895
378.6463
396.3552
0.0000000 0.1000000 0.4000000
168.4065
180.9131
247.3960
260.9112
318.8730
434.6621
0.0000000 0.1000000 -0.5000000
117.4291
128.2469
220.4262
276.5663
291.8094
465.6340
0.0000000 0.2000000 0.0000000
131.7259
141.4128
269.4365
310.0376
360.3654
462.9061
0.0000000 0.2000000 0.1000000
156.5562
159.1383
294.7786
303.1603
349.4043
458.9284
0.0000000 0.2000000 0.2000000
197.9607
206.7564
283.4613
318.0899
349.4129
444.7223
0.0000000 0.2000000 0.3000000
239.5888
250.0069
259.6156
273.0121
402.8008
414.2400
0.0000000 0.2000000 0.4000000
209.1527
220.9827
275.6921
307.2106
364.7214
438.4752
0.0000000 0.2000000 -0.5000000
167.8613
169.3048
299.9592
307.0801
342.9657
456.3558
0.0000000 0.3000000 0.0000000
186.8312
189.8153
331.2287
355.1120
410.7037
439.3022
0.0000000 0.3000000 0.1000000
197.9820
201.2393
325.9357
371.3954
388.7477
450.4204
0.0000000 0.3000000 0.2000000
228.0824
234.4184
308.9767
342.4371
410.1686
456.4586
0.0000000 0.3000000 0.3000000
271.2308
276.5084
280.1924
290.4883
440.7758
446.4139
0.0000000 0.3000000 0.4000000
239.6633
244.3064
302.4128
329.1952
419.4444
455.4999
0.0000000 0.3000000 -0.5000000
203.5825
208.9960
322.6337
372.8957
385.8512
453.3136
0.0000000 0.4000000 0.0000000
211.2999
237.9404
346.0618
402.4178
411.9001
440.9971
0.0000000 0.4000000 0.1000000
224.0876
234.8079
340.9763
384.2273
420.4386
457.9774
0.0000000 0.4000000 0.2000000
243.3259
254.7988
325.0838
340.4947
449.0521
472.8553
0.0000000 0.4000000 0.3000000
278.1131
288.7967
291.5293
298.3214
469.4759
472.3818
0.0000000 0.4000000 0.4000000
250.1178
264.1635
318.9747
327.3813
455.7829
474.3446
0.0000000 0.4000000 -0.5000000
231.0130
234.8896
337.8501
373.7352
427.8619
463.1428
0.0000000 -0.5000000 0.0000000
219.7053
272.3372
353.6437
387.6613
422.0633
452.3388
0.0000000 -0.5000000 0.1000000
231.9146
261.1486
348.2981
370.0631
439.3028
464.6260
0.0000000 -0.5000000 0.2000000
253.8916
261.9271
330.8087
333.4947
466.3512
480.7380
0.0000000 -0.5000000 0.3000000
276.7600
287.3384
296.6711
305.2594
482.2833
483.9959
0.0000000 -0.5000000 0.4000000
256.7985
271.2077
320.7279
325.5390
471.9970
483.0807
0.0000000 -0.5000000 -0.5000000
238.6648
257.2003
345.0614
361.4066
446.8411
469.6218
0.1000000 0.1000000 0.0000000
94.6462
107.3012
199.7060
298.1328
326.3016
473.2425
0.1000000 0.1000000 0.1000000
128.7237
131.6836
235.1101
291.0336
317.2095
466.2789
0.1000000 0.1000000 0.2000000
173.3897
185.6553
268.0620
290.0462
313.0744
444.0646
0.1000000 0.1000000 0.3000000
218.8408
228.8274
237.9112
248.9114
385.8662
401.3883
0.1000000 0.1000000 0.4000000
185.7352
199.3384
259.4832
280.1649
334.1663
435.0071
0.1000000 0.1000000 -0.5000000
139.9912
145.9959
253.8083
286.6426
311.7090
462.0019
0.1000000 0.2000000 0.0000000
146.1661
168.1507
278.2298
330.5959
367.5396
457.8563
0.1000000 0.2000000 0.1000000
163.4885
183.7133
298.2681
329.3851
355.2012
455.6333
0.1000000 0.2000000 0.2000000
206.0722
218.3896
298.8850
321.8705
362.5766
445.3069
0.1000000 0.2000000 0.3000000
250.5586
252.0298
276.2608
279.9510
409.5831
419.5926
0.1000000 0.2000000 0.4000000
219.0687
228.4424
292.8216
310.6650
375.9617
440.2451
0.1000000 0.2000000 -0.5000000
173.1200
191.8803
304.2806
332.4177
348.0907
453.9700
0.1000000 0.3000000 0.0000000
198.5175
215.6816
326.9175
375.2190
408.9145
434.6197
0.1000000 0.3000000 0.1000000
200.0863
229.6821
333.2858
377.1884
390.0173
447.8256
0.1000000 0.3000000 0.2000000
221.1142
259.6429
323.5488
341.8572
413.5976
455.6451
0.1000000 0.3000000 0.3000000
261.8635
272.0522
304.0365
310.0293
441.9004
447.1146
0.1000000 0.3000000 0.4000000
230.7328
267.8928
315.9603
332.2029
422.0593
455.0964
0.1000000 0.3000000 -0.5000000
203.1457
236.7786
333.5258
370.4152
392.4250
451.2436
0.1000000 0.4000000 0.0000000
241.4979
243.8781
352.6484
405.2603
407.7458
438.3057
0.1000000 0.4000000 0.1000000
232.2790
257.8916
350.9245
381.2840
421.6956
454.1254
0.1000000 0.4000000 0.2000000
234.3566
284.7782
324.3890
355.6148
446.9365
469.2351
0.1000000 0.4000000 0.3000000
263.3306
274.1373
322.1759
329.7262
466.4023
469.1789
0.1000000 0.4000000 0.4000000
239.5293
291.0527
315.1584
349.2656
453.2854
470.8336
0.1000000 0.4000000 -0.5000000
230.5805
264.2432
347.0013
373.6536
427.8727
459.2873
0.2000000 0.2000000 0.0000000
180.4050
193.7280
318.0527
354.1997
398.5789
443.6217
0.2000000 0.2000000 0.1000000
187.7377
208.9212
323.3902
362.3708
380.6110
449.8057
0.2000000 0.2000000 0.2000000
217.7523
241.8943
312.2272
338.4111
398.4928
451.9249
0.2000000 0.2000000 0.3000000
261.2784
268.7859
290.3062
296.3879
432.0323
438.5655
0.2000000 0.2000000 0.4000000
228.9678
251.4938
305.8561
326.5476
408.3807
450.0831
0.2000000 0.2000000 -0.5000000
193.3814
216.6710
322.7797
365.0660
375.7894
451.4953
0.2000000 0.3000000 0.0000000
221.2061
250.8798
335.8447
402.3682
413.8690
421.7214
0.2000000 0.3000000 0.1000000
216.2109
261.9947
347.8904
378.1665
408.2009
445.0801
0.2000000 0.3000000 0.2000000
224.9556
285.5403
333.2603
352.2008
427.7739
458.2038
0.2000000 0.3000000 0.3000000
259.3863
270.7257
327.8609
333.8508
450.3890
454.3075
0.2000000 0.3000000 0.4000000
231.9715
289.2738
324.3757
348.6004
434.5448
458.8880
0.2000000 0.3000000 -0.5000000
215.9910
267.8581
350.8391
367.2628
411.6078
450.0817
0.2000000 0.4000000 0.0000000
260.0361
292.6963
358.1343
395.4409
417.4567
434.5659
0.2000000 0.4000000 0.1000000
245.9257
301.9168
363.4889
374.8729
432.6319
444.0265
0.2000000 0.4000000 0.2000000
236.4465
305.4528
339.0624
381.2643
446.1897
461.7021
0.2000000 0.4000000 0.3000000
256.1926
265.8544
359.9426
365.9531
461.6082
463.7864
0.2000000 0.4000000 0.4000000
238.6736
296.1709
342.9495
378.7922
450.9655
463.9081
0.2000000 0.4000000 -0.5000000
241.2768
306.1724
353.8678
378.6709
435.1515
449.8032
0.3000000 0.3000000 0.0000000
248.0645
249.0962
355.3502
403.8754
408.1766
439.8008
0.3000000 0.3000000 0.1000000
236.0028
264.3229
353.1445
380.2896
424.1285
454.3129
0.3000000 0.3000000 0.2000000
235.2312
290.1806
323.7529
359.3933
448.7643
469.5722
0.3000000 0.3000000 0.3000000
262.1343
272.7473
327.5327
334.9660
467.4879
470.0854
0.3000000 0.3000000 0.4000000
239.7105
294.6763
315.8598
353.6379
454.9105
471.3034
0.3000000 0.3000000 -0.5000000
233.5610
270.5865
348.2482
374.0399
430.2154
459.4170
P = 1561.6900	V = 104.5144	E = -655.29171472000000	S_el = 0.00001488561000
0.0000000 0.0000000 0.0000000
0.0000
0.0000
0.0000
305.9432
305.9432
544.4752
0.0000000 0.0000000 0.1000000
75.5670
75.5670
163.1628
296.6981
296.6981
533.2479
0.0000000 0.0000000 0.2000000
143.6346
143.6346
267.2560
267.2560
306.0911
498.9319
0.0000000 0.0000000 0.3000000
204.3503
204.3503
219.1764
219.1764
414.4025
436.6343
0.0000000 0.0000000 0.4000000
160.3215
160.3215
256.0876
256.0876
338.4422
485.5149
0.0000000 0.0000000 -0.5000000
94.4011
94.4011
203.6744
290.9599
290.9599
526.5053
0.0000000 0.1000000 0.0000000
73.8441
82.7724
161.4238
316.1236
334.6192
537.9912
0.0000000 0.1000000 0.1000000
113.0155
123.3749
216.2088
307.6010
325.1295
527.8710
0.0000000 0.1000000 0.2000000
167.8740
182.0156
280.4699
295.9836
325.9884
497.0109
0.0000000 0.1000000 0.3000000
222.6325
236.2303
236.6626
250.3842
421.0100
440.9501
0.0000000 0.1000000 0.4000000
182.6765
196.7728
270.1829
285.2157
353.8371
484.9375
0.0000000 0.1000000 -0.5000000
126.8476
139.5341
243.9949
302.3118
319.3395
521.8047
0.0000000 0.2000000 0.0000000
144.2060
153.6183
297.9551
339.5946
396.0661
519.4279
0.0000000 0.2000000 0.1000000
171.1806
173.0226
326.1788
331.8310
383.9404
514.1393
0.0000000 0.2000000 0.2000000
215.3878
226.1424
309.9844
348.9677
387.3279
496.4280
0.0000000 0.2000000 0.3000000
261.3746
272.8688
284.2128
298.9568
447.6374
460.6870
0.0000000 0.2000000 0.4000000
227.6683
241.6537
301.3975
336.9449
404.4426
488.9856
0.0000000 0.2000000 -0.5000000
182.9403
184.5839
328.2525
339.8117
376.8634
510.8393
0.0000000 0.3000000 0.0000000
203.7496
207.7185
363.6462
393.4462
453.6948
491.5573
0.0000000 0.3000000 0.1000000
217.0650
219.4951
357.6439
410.9692
430.5628
502.8020
0.0000000 0.3000000 0.2000000
250.4892
255.8737
338.5438
377.6971
455.2659
508.6873
0.0000000 0.3000000 0.3000000
296.5213
304.0973
306.4010
319.5717
489.9424
496.4440
0.0000000 0.3000000 0.4000000
263.2104
266.7199
331.2246
362.9197
465.6459
507.3562
0.0000000 0.3000000 -0.5000000
223.3770
227.8830
353.9293
411.7169
428.2399
505.8071
0.0000000 0.4000000 0.0000000
231.1402
260.9523
380.7992
446.7401
459.2343
489.9969
0.0000000 0.4000000 0.1000000
245.2150
258.3080
375.0279
426.5409
467.3841
510.2196
0.0000000 0.4000000 0.2000000
268.4466
278.9429
357.0187
377.0188
499.5207
527.3047
0.0000000 0.4000000 0.3000000
307.0961
317.3959
321.0464
326.9885
522.9381
526.3460
0.0000000 0.4000000 0.4000000
275.9629
289.1949
350.1581
362.3049
507.1448
528.9140
0.0000000 0.4000000 -0.5000000
252.8407
258.6291
371.4968
414.6735
475.6132
516.1986
0.0000000 -0.5000000 0.0000000
241.1696
299.3197
389.7688
430.6363
469.2501
505.0352
0.0000000 -0.5000000 0.1000000
254.5755
288.0708
383.7433
410.8613
488.6179
519.1355
0.0000000 -0.5000000 0.2000000
281.1235
287.4263
365.1516
368.6989
519.5419
537.4687
0.0000000 -0.5000000 0.3000000
306.5722
318.2927
325.6888
335.2048
538.4207
540.5812
0.0000000 -0.5000000 0.4000000
284.3929
297.5571
355.5620
358.1100
526.1029
540.0250
0.0000000 -0.5000000 -0.5000000
261.9356
284.1245
380.0991
401.2101
497.1170
524.8392
0.1000000 0.1000000 0.0000000
103.6131
116.4750
220.5916
326.2540
357.7043
531.6508
0.1000000 0.1000000 0.1000000
139.7801
143.6160
259.9597
318.4128
347.6335
522.8554
0.1000000 0.1000000 0.2000000
188.2620
202.4171
292.9370
317.4938
347.1665
495.9153
0.1000000 0.1000000 0.3000000
238.4795
249.4866
259.8378
271.9285
428.9842
446.5335
0.1000000 0.1000000 0.4000000
201.8052
217.2993
283.5056
306.5899
370.6854
485.3098
0.1000000 0.1000000 -0.5000000
151.7144
159.2740
280.6786
313.6257
341.5679
517.5782
0.1000000 0.2000000 0.0000000
159.9769
183.0456
306.4390
363.9553
404.1567
513.4599
0.1000000 0.2000000 0.1000000
178.8157
199.9787
327.6643
363.6404
390.5292
510.1735
0.1000000 0.2000000 0.2000000
225.2611
237.9548
327.0753
353.4577
402.1277
496.9328
0.1000000 0.2000000 0.3000000
273.5775
275.0620
302.5766
306.9062
455.1923
466.6285
0.1000000 0.2000000 0.4000000
239.4038
248.9732
320.4456
341.0481
417.0710
490.8438
0.1000000 0.2000000 -0.5000000
189.2573
208.8528
333.4952
367.8243
382.6980
507.9149
0.1000000 0.3000000 0.0000000
217.3150
235.4143
358.8994
415.9151
451.8707
486.0252
0.1000000 0.3000000 0.1000000
219.1627
250.8664
365.5764
417.0993
432.9421
499.6361
0.1000000 0.3000000 0.2000000
242.3810
283.7698
355.1965
376.7728
459.4749
507.7131
0.1000000 0.3000000 0.3000000
287.0511
297.9469
333.9778
340.3785
491.3734
497.3535
0.1000000 0.3000000 0.4000000
252.8991
292.7784
347.2267
365.6287
468.8935
506.8894
0.1000000 0.3000000 -0.5000000
222.5596
258.6309
365.8137
409.2274
435.9387
503.2798
0.1000000 0.4000000 0.0000000
264.4993
267.2551
387.7539
450.3172
453.9804
487.1929
0.1000000 0.4000000 0.1000000
254.8316
282.8553
386.0278
422.8159
469.1711
505.7578
0.1000000 0.4000000 0.2000000
257.7734
312.2769
357.9007
392.2900
497.3835
523.1038
0.1000000 0.4000000 0.3000000
289.7414
301.5381
354.5248
362.8313
519.5477
522.7647
0.1000000 0.4000000 0.4000000
263.4899
319.0773
347.8949
384.9552
504.5318
524.8668
0.1000000 0.4000000 -0.5000000
253.2043
289.8008
381.9989
413.8475
476.0004
511.7094
0.2000000 0.2000000 0.0000000
197.4918
211.1472
349.3261
391.9269
439.7317
496.6518
0.2000000 0.2000000 0.1000000
205.5397
227.9145
354.5763
401.1569
420.6691
502.5907
0.2000000 0.2000000 0.2000000
238.4716
264.1895
342.1349
372.7362
442.3010
503.7759
0.2000000 0.2000000 0.3000000
286.0064
293.9212
318.6071
325.3767
480.1867
487.6914
0.2000000 0.2000000 0.4000000
250.7069
274.7266
335.1893
359.4716
453.3308
501.4073
0.2000000 0.2000000 -0.5000000
211.7139
236.3964
353.8114
402.9112
416.6532
504.1633
0.2000000 0.3000000 0.0000000
242.1138
274.3896
368.7950
446.6407
458.3109
470.6922
0.2000000 0.3000000 0.1000000
236.9200
286.5579
381.8894
418.7116
454.0940
495.7567
0.2000000 0.3000000 0.2000000
246.8294
312.2201
368.1488
386.9455
475.9003
510.4147
0.2000000 0.3000000 0.3000000
284.7030
297.0367
360.4533
366.8372
501.2153
505.6676
0.2000000 0.3000000 0.4000000
254.5275
316.3481
358.2019
382.9678
483.3935
511.0941
0.2000000 0.3000000 -0.5000000
236.7867
292.9369
385.1789
406.4078
457.9324
501.3702
0.2000000 0.4000000 0.0000000
284.7973
321.2299
393.9863
439.7711
462.7305
484.0154
0.2000000 0.4000000 0.1000000
269.7534
331.1818
402.1197
413.3090
481.8827
494.0226
0.2000000 0.4000000 0.2000000
259.9784
335.3137
374.6650
419.9792
497.1810
514.2936
0.2000000 0.4000000 0.3000000
281.8778
292.4546
396.6560
403.2330
514.3490
516.7766
0.2000000 0.4000000 0.4000000
262.5020
325.5696
378.3646
417.3408
502.4549
516.8328
0.2000000 0.4000000 -0.5000000
264.8606
335.6989
391.9460
416.9524
484.8595
500.5720
0.3000000 0.3000000 0.0000000
271.7793
273.0454
390.7870
449.7471
453.2721
489.1465
0.3000000 0.3000000 0.1000000
258.9594
290.0109
388.6850
421.5803
471.9185
506.0268
0.3000000 0.3000000 0.2000000
258.7841
318.2579
357.4707
396.4181
499.5211
523.5385
0.3000000 0.3000000 0.3000000
288.4918
300.0937
360.5475
368.7350
520.8645
523.8768
0.3000000 0.3000000 0.4000000
263.7476
323.1882
348.7994
389.8158
506.4499
525.4608
0.3000000 0.3000000 -0.5000000
256.5166
296.8632
383.7103
414.0305
478.6799
511.9000
P = 2058.3000	V = 99.1777	E = -655.23116999000000	S_el = 0.00001368962000
0.0000000 0.0000000 0.0000000
0.0000
0.0000
0.0000
327.8799
327.8799
596.1425
0.0000000 0.0000000 0.1000000
80.1324
80.1324
176.7669
317.9748
317.9748
582.8732
0.0000000 0.0000000 0.2000000
152.9053
152.9053
286.3122
286.3122
331.8933
543.4458
0.0000000 0.0000000 0.3000000
218.4322
218.4322
234.3800
234.3800
449.9425
474.1929
0.0000000 0.0000000 0.4000000
170.7735
170.7735
274.3389
274.3389
366.8861
528.4516
0.0000000 0.0000000 -0.5000000
100.0797
100.0797
220.4541
311.8549
311.8549
575.0586
0.0000000 0.1000000 0.0000000
79.2071
88.2687
174.4535
338.9584
359.0582
588.7669
0.0000000 0.1000000 0.1000000
120.3296
132.0516
233.9762
329.7824
348.8426
576.8374
0.0000000 0.1000000 0.2000000
178.9928
194.4986
300.5202
317.3516
353.3604
541.3739
0.0000000 0.1000000 0.3000000
238.0702
252.6965
253.2635
268.0100
457.1168
478.9176
0.0000000 0.1000000 0.4000000
194.8372
210.2254
289.4743
305.7705
383.5281
527.8578
0.0000000 0.1000000 -0.5000000
134.9757
149.1236
264.0012
324.1194
342.6380
569.8148
0.0000000 0.2000000 0.0000000
154.6448
164.0540
322.3306
364.5846
426.1983
567.6739
0.0000000 0.2000000 0.1000000
183.5042
184.8787
352.4833
356.5652
413.1217
561.2848
0.0000000 0.2000000 0.2000000
230.1917
242.5105
332.3819
375.0055
419.6616
540.5604
0.0000000 0.2000000 0.3000000
279.7936
292.1578
304.9407
320.7833
485.8543
500.2507
0.0000000 0.2000000 0.4000000
243.3380
259.0529
323.1217
362.0412
438.2510
532.1074
0.0000000 0.2000000 -0.5000000
195.6466
197.5683
352.1224
367.7254
405.5558
557.3818
0.0000000 0.3000000 0.0000000
218.2098
222.6832
391.0423
426.1860
490.1309
536.0481
0.0000000 0.3000000 0.1000000
233.0971
235.0746
384.4289
444.5266
466.1459
547.5221
0.0000000 0.3000000 0.2000000
269.3802
274.0835
363.5024
407.4665
493.7130
553.2575
0.0000000 0.3000000 0.3000000
317.9129
327.2293
328.6652
344.0678
531.8163
539.0461
0.0000000 0.3000000 0.4000000
283.0228
285.6919
355.5660
391.4270
504.9811
551.5947
0.0000000 0.3000000 -0.5000000
240.0169
243.9546
380.3729
444.5384
464.4075
550.6231
0.0000000 0.4000000 0.0000000
248.2005
280.1272
410.1325
484.5677
499.4037
531.7678
0.0000000 0.4000000 0.1000000
263.3170
278.0330
403.7769
462.3725
507.4730
554.7916
0.0000000 0.4000000 0.2000000
289.6448
299.5091
383.9914
407.9321
542.5011
573.7630
0.0000000 0.4000000 0.3000000
331.5726
341.3731
346.2248
351.2522
568.4536
572.2956
0.0000000 0.4000000 0.4000000
297.7501
310.4619
376.5271
391.8894
550.8477
575.4526
0.0000000 0.4000000 -0.5000000
271.4815
278.6058
399.9154
449.3804
516.3337
561.4593
0.0000000 -0.5000000 0.0000000
259.7014
321.8116
420.2437
466.9914
509.5719
550.0875
0.0000000 -0.5000000 0.1000000
274.0746
310.7116
413.6537
445.3916
530.6531
565.7438
0.0000000 -0.5000000 0.2000000
304.1772
309.2318
393.8554
398.7918
564.7858
585.9320
0.0000000 -0.5000000 0.3000000
331.7695
344.4199
350.3628
360.6083
586.2186
588.7837
0.0000000 -0.5000000 0.4000000
307.7350
320.0276
384.6465
386.0761
572.1038
588.6359
0.0000000 -0.5000000 -0.5000000
281.9078
306.8383
409.6850
434.9277
539.9111
572.0343
0.1000000 0.1000000 0.0000000
111.1250
124.3113
238.4368
350.0465
384.2050
581.5591
0.1000000 0.1000000 0.1000000
149.2204
153.7482
281.1716
341.5917
373.3325
571.1878
0.1000000 0.1000000 0.2000000
200.9520
216.6239
313.9569
340.6610
376.2235
540.1632
0.1000000 0.1000000 0.3000000
255.1013
266.9234
278.3484
291.3165
465.7395
484.9796
0.1000000 0.1000000 0.4000000
215.4447
232.4635
303.8242
328.9130
401.7353
528.2552
0.1000000 0.1000000 -0.5000000
161.7385
170.4847
303.5103
336.5066
366.8149
565.0707
0.1000000 0.2000000 0.0000000
171.5257
195.7301
330.3708
392.3857
435.0475
560.8993
0.1000000 0.2000000 0.1000000
191.7186
213.8179
352.4426
392.9660
420.3488
556.7394
0.1000000 0.2000000 0.2000000
241.4464
254.5270
350.8495
380.1079
435.8692
540.9997
0.1000000 0.2000000 0.3000000
292.9579
294.4690
324.7765
329.6199
494.0683
506.6974
0.1000000 0.2000000 0.4000000
256.5077
266.3093
343.7576
366.7077
452.0795
534.0389
0.1000000 0.2000000 -0.5000000
202.8331
223.2568
358.1096
398.0605
411.9700
553.9916
0.1000000 0.3000000 0.0000000
233.0062
252.2100
385.9378
450.6136
488.3156
529.7774
0.1000000 0.3000000 0.1000000
235.1914
268.8511
392.8264
450.8351
469.6101
543.8542
0.1000000 0.3000000 0.2000000
260.2990
304.1682
381.8496
406.3112
498.6142
552.1368
0.1000000 0.3000000 0.3000000
308.2600
319.7201
359.2845
366.0074
533.5176
540.1388
0.1000000 0.3000000 0.4000000
271.5417
313.7700
373.5785
393.9423
508.7959
551.0651
0.1000000 0.3000000 -0.5000000
238.8843
277.1436
393.0468
442.0581
473.1031
547.6891
0.1000000 0.4000000 0.0000000
283.9554
286.9316
417.4048
488.6206
493.2849
528.8984
0.1000000 0.4000000 0.1000000
273.8249
304.0471
415.6181
458.0288
509.7018
549.7948
0.1000000 0.4000000 0.2000000
277.5292
335.5649
386.2042
423.3468
540.3682
569.0492
0.1000000 0.4000000 0.3000000
312.0176
324.6149
381.9309
390.8307
564.7962
568.3898
0.1000000 0.4000000 0.4000000
283.6825
342.7590
375.6100
415.1720
548.1575
570.9320
0.1000000 0.4000000 -0.5000000
272.2729
311.4789
411.4936
447.9720
517.0545
556.4115
0.2000000 0.2000000 0.0000000
211.7592
226.0001
375.7556
424.1453
474.5670
541.8276
0.2000000 0.2000000 0.1000000
220.5103
244.0599
380.9047
434.0533
454.7558
547.6512
0.2000000 0.2000000 0.2000000
255.9383
283.0591
367.3557
401.7156
479.6686
548.0288
0.2000000 0.2000000 0.3000000
306.8324
315.0841
342.4987
349.8419
521.2120
529.5320
0.2000000 0.2000000 0.4000000
268.9938
294.3379
359.9425
387.3033
491.6169
545.2010
0.2000000 0.2000000 -0.5000000
227.1348
253.1230
380.0049
434.8664
451.5698
549.1339
0.2000000 0.3000000 0.0000000
259.5722
294.3286
396.6687
484.1516
496.1916
512.4146
0.2000000 0.3000000 0.1000000
254.3070
307.3602
410.5730
453.0121
493.3258
538.9623
0.2000000 0.3000000 0.2000000
265.2434
334.7277
397.6600
416.2639
516.9750
554.9318
0.2000000 0.3000000 0.3000000
306.0220
319.1579
388.0118
394.6730
544.5125
549.4060
0.2000000 0.3000000 0.4000000
273.4911
339.1506
386.8837
411.9425
525.0361
555.5936
0.2000000 0.3000000 -0.5000000
254.2682
314.1413
414.1041
439.5987
497.5122
545.0917
0.2000000 0.4000000 0.0000000
305.5032
345.4031
424.3418
477.3645
501.1535
526.2365
0.2000000 0.4000000 0.1000000
289.7826
355.9349
434.5992
446.0718
523.8547
536.6420
0.2000000 0.4000000 0.2000000
279.8069
360.4590
404.9588
452.6061
540.6711
559.0929
0.2000000 0.4000000 0.3000000
303.5372
314.8687
427.7005
434.7045
559.2547
561.8834
0.2000000 0.4000000 0.4000000
282.5675
350.3634
408.4474
449.8374
546.3336
561.9008
0.2000000 0.4000000 -0.5000000
284.7207
360.6432
424.2446
449.3118
527.2543
543.8052
0.3000000 0.3000000 0.0000000
291.6725
293.3643
420.7174
488.6581
491.6739
531.2582
0.3000000 0.3000000 0.1000000
278.2898
311.8150
418.6292
456.6120
512.6995
550.1395
0.3000000 0.3000000 0.2000000
278.6564
342.0244
385.9809
427.7509
542.7644
569.5672
0.3000000 0.3000000 0.3000000
310.7250
323.1291
388.5154
397.2940
566.3082
569.6761
0.3000000 0.3000000 0.4000000
284.0082
347.2653
376.7207
420.4291
550.3217
571.6311
0.3000000 0.3000000 -0.5000000
275.8670
319.1467
413.5894
447.9969
520.0080
556.6577
P = 2555.0200	V = 94.8736	E = -655.16762535000000	S_el = 0.00001276347500
0.0000000 0.0000000 0.0000000
0.0000
0.0000
0.0000
347.1243
347.1243
641.6437
0.0000000 0.0000000 0.1000000
84.4980
84.4980
188.6201
336.6575
336.6575
626.5553
0.0000000 0.0000000 0.2000000
161.3873
161.3873
303.0546
303.0546
354.4675
582.5806
0.0000000 0.0000000 0.3000000
230.9254
230.9254
247.7900
247.7900
481.1445
507.1418
0.0000000 0.0000000 0.4000000
180.2076
180.2076
290.3999
290.3999
391.7331
566.2184
0.0000000 0.0000000 -0.5000000
105.4235
105.4235
235.0070
330.2197
330.2197
617.8077
0.0000000 0.1000000 0.0000000
83.8447
93.1700
185.9611
358.9763
380.4469
633.4672
0.0000000 0.1000000 0.1000000
126.9808
139.7007
249.6331
349.2401
369.6178
619.9317
0.0000000 0.1000000 0.2000000
188.9906
205.5972
318.1125
336.0774
377.3812
580.3803
0.0000000 0.1000000 0.3000000
251.7059
267.1784
267.8738
283.4707
488.8346
512.2419
0.0000000 0.1000000 0.4000000
205.6844
222.1279
306.4232
323.8044
409.5284
565.6135
0.0000000 0.1000000 -0.5000000
142.3451
157.6020
281.5364
343.2638
363.0692
612.0793
0.0000000 0.2000000 0.0000000
163.6568
173.3495
343.8590
386.4676
452.5286
610.1006
0.0000000 0.2000000 0.1000000
194.2668
195.3957
375.2801
378.6297
438.6478
602.7598
0.0000000 0.2000000 0.2000000
243.2880
256.8244
351.9918
397.7518
448.1234
579.3824
0.0000000 0.2000000 0.3000000
295.9738
309.0623
323.0467
339.8210
519.4555
535.0122
0.0000000 0.2000000 0.4000000
257.1474
274.2351
342.1599
383.9828
467.9568
570.0519
0.0000000 0.2000000 -0.5000000
206.7886
209.0029
373.0545
392.2574
430.6926
598.3422
0.0000000 0.3000000 0.0000000
231.0532
235.6128
415.0146
455.0765
522.0647
575.0992
0.0000000 0.3000000 0.1000000
247.0299
248.8685
407.8600
473.9531
497.4222
586.8775
0.0000000 0.3000000 0.2000000
285.8450
290.1269
385.3332
433.4614
527.5509
592.4822
0.0000000 0.3000000 0.3000000
336.6793
347.2991
348.2723
365.4159
568.6252
576.4860
0.0000000 0.3000000 0.4000000
300.2668
302.3633
376.8763
416.3448
539.5585
590.5215
0.0000000 0.3000000 -0.5000000
254.4690
258.1656
403.5122
473.2411
496.2667
590.0682
0.0000000 0.4000000 0.0000000
263.4205
296.6405
435.7785
517.9241
534.5721
568.5433
0.0000000 0.4000000 0.1000000
279.3958
295.1319
428.9093
493.7104
542.8174
594.0321
0.0000000 0.4000000 0.2000000
308.1184
317.6576
407.5878
434.9603
580.2920
614.6583
0.0000000 0.4000000 0.3000000
352.9328
362.2205
368.3982
372.5311
608.4526
612.6788
0.0000000 0.4000000 0.4000000
316.7258
329.1846
399.6217
417.7753
589.2428
616.4029
0.0000000 0.4000000 -0.5000000
287.9823
295.9660
424.7686
479.7646
552.1896
601.2980
0.0000000 -0.5000000 0.0000000
276.2709
341.1918
446.8633
498.7399
545.1617
589.8402
0.0000000 -0.5000000 0.1000000
291.4394
330.3731
439.7883
475.5668
567.6612
606.8541
0.0000000 -0.5000000 0.2000000
324.3198
328.5254
418.7226
425.3269
604.5292
628.6326
0.0000000 -0.5000000 0.3000000
353.7659
367.2031
372.0827
382.9251
628.2258
631.1601
0.0000000 -0.5000000 0.4000000
328.1198
339.8620
409.7494
410.9009
612.4920
631.4413
0.0000000 -0.5000000 -0.5000000
299.6489
326.6169
435.5516
464.4145
577.5379
613.6435
0.1000000 0.1000000 0.0000000
117.6172
131.2879
254.1967
370.8982
407.3705
625.4799
0.1000000 0.1000000 0.1000000
157.6305
162.6589
299.8806
361.9210
395.8206
613.7172
0.1000000 0.1000000 0.2000000
212.2602
229.1342
332.3800
360.9345
401.7700
579.0738
0.1000000 0.1000000 0.3000000
269.7392
282.2268
294.5796
308.2768
498.0411
518.7386
0.1000000 0.1000000 0.4000000
227.5312
245.7768
321.6528
348.4660
428.9732
566.0367
0.1000000 0.1000000 -0.5000000
170.7039
180.2977
323.5609
356.6045
388.9286
606.8743
0.1000000 0.2000000 0.0000000
181.4956
206.9673
351.3958
417.4245
462.0286
602.6023
0.1000000 0.2000000 0.1000000
202.9438
226.0692
374.0943
418.8775
446.4086
597.7027
0.1000000 0.2000000 0.2000000
255.5881
269.1245
371.6309
403.3933
465.5820
579.7705
0.1000000 0.2000000 0.3000000
309.8940
311.4470
344.1918
349.4545
528.2541
541.9104
0.1000000 0.2000000 0.4000000
271.4234
281.5324
364.1498
389.1472
482.8566
572.0513
0.1000000 0.2000000 -0.5000000
214.6476
235.9800
379.6118
424.7148
437.5976
594.5417
0.1000000 0.3000000 0.0000000
246.5390
267.0610
409.6231
481.1715
520.2868
568.1707
0.1000000 0.3000000 0.1000000
249.1125
284.6988
416.6445
480.3405
501.9356
582.7631
0.1000000 0.3000000 0.2000000
275.9176
322.0588
405.1038
432.1519
533.0794
591.2299
0.1000000 0.3000000 0.3000000
326.7559
338.6939
381.4306
388.4201
570.5709
577.7449
0.1000000 0.3000000 0.4000000
287.7725
332.1412
396.5784
418.7459
543.8914
589.9335
0.1000000 0.3000000 -0.5000000
253.0772
293.4232
416.8374
470.7750
505.8706
586.7700
0.1000000 0.4000000 0.0000000
301.0367
304.0437
443.3387
522.2655
527.7670
565.6370
0.1000000 0.4000000 0.1000000
290.3671
322.6789
441.4490
488.8628
545.4260
588.5566
0.1000000 0.4000000 0.2000000
294.7577
355.9924
410.9322
450.5422
578.1788
609.4839
0.1000000 0.4000000 0.3000000
331.4539
344.7294
405.9560
415.3401
604.5629
608.4872
0.1000000 0.4000000 0.4000000
301.2791
363.4887
399.8728
441.6337
586.4996
611.4573
0.1000000 0.4000000 -0.5000000
288.8873
330.5266
437.2321
477.8922
553.2122
595.7491
0.2000000 0.2000000 0.0000000
224.0641
239.1672
398.9040
452.5552
505.0703
581.4971
0.2000000 0.2000000 0.1000000
233.5242
258.3143
403.9288
462.9003
484.7275
587.2969
0.2000000 0.2000000 0.2000000
271.1789
299.6334
389.3931
427.0290
512.5707
586.9739
0.2000000 0.2000000 0.3000000
325.0107
333.5626
363.3887
371.2236
557.2831
566.3068
0.2000000 0.2000000 0.4000000
284.9270
311.5198
381.5850
411.6412
525.2835
583.7394
0.2000000 0.2000000 -0.5000000
240.5500
267.8556
402.9058
462.8021
482.3523
588.7132
0.2000000 0.3000000 0.0000000
274.6394
311.8780
421.0994
517.0036
529.5894
549.0278
0.2000000 0.3000000 0.1000000
269.3961
325.6363
435.6353
483.0082
527.9412
576.9650
0.2000000 0.3000000 0.2000000
281.2755
354.4192
423.4703
441.8766
553.1545
594.0956
0.2000000 0.3000000 0.3000000
324.6050
338.4197
412.1328
418.9966
582.5808
587.8510
0.2000000 0.3000000 0.4000000
289.9882
359.0631
412.0257
437.2372
561.6774
594.7336
0.2000000 0.3000000 -0.5000000
269.4593
332.7413
439.3433
468.6739
532.4182
583.5456
0.2000000 0.4000000 0.0000000
323.4061
366.6287
450.9586
510.2641
534.8744
563.4468
0.2000000 0.4000000 0.1000000
307.1892
377.6342
462.8501
474.9295
560.7926
574.1474
0.2000000 0.4000000 0.2000000
297.0785
382.3921
431.5993
481.0694
578.9554
598.4857
0.2000000 0.4000000 0.3000000
322.4278
334.4104
454.8653
462.2037
598.7214
601.5189
0.2000000 0.4000000 0.4000000
300.0379
372.0093
434.8708
478.1948
584.9302
601.5173
0.2000000 0.4000000 -0.5000000
302.0081
382.4859
452.5481
477.6156
564.5865
581.8158
0.3000000 0.3000000 0.0000000
309.0001
311.1660
446.8953
522.7147
525.4731
568.3641
0.3000000 0.3000000 0.1000000
295.1220
330.9824
444.7562
487.3049
548.6317
588.9741
0.3000000 0.3000000 0.2000000
295.9872
362.8608
410.9106
455.1753
580.7985
610.0764
0.3000000 0.3000000 0.3000000
330.1241
343.2088
413.0302
422.2904
606.2451
609.9263
0.3000000 0.3000000 0.4000000
301.6656
368.3223
401.1918
447.2264
588.8778
612.2490
0.3000000 0.3000000 -0.5000000
292.7280
338.7208
439.6528
477.7929
556.3973
596.0485
P = 3050.6400	V = 91.2893	E = -655.10246074000000	S_el = 0.00001202258000
0.0000000 0.0000000 0.0000000
0.0000
0.0000
0.0000
364.3269
364.3269
682.3547
0.0000000 0.0000000 0.1000000
88.7312
88.7312
199.1202
353.3736
353.3736
665.6256
0.0000000 0.0000000 0.2000000
169.2995
169.2995
318.0493
318.0493
374.5459
617.5529
0.0000000 0.0000000 0.3000000
242.2350
242.2350
259.8611
259.8611
508.9919
536.5319
0.0000000 0.0000000 0.4000000
188.9022
188.9022
304.8068
304.8068
413.8083
599.9823
0.0000000 0.0000000 -0.5000000
110.5413
110.5413
247.8507
346.6651
346.6651
656.0530
0.0000000 0.1000000 0.0000000
87.9282
97.6271
196.2994
376.8570
399.5229
673.4513
0.0000000 0.1000000 0.1000000
133.1453
146.5703
263.6652
366.6321
388.1654
658.4713
0.0000000 0.1000000 0.2000000
198.1626
215.6614
333.8473
352.8059
398.8142
615.2412
0.0000000 0.1000000 0.3000000
263.9940
280.1751
280.9913
297.3079
517.1601
541.9819
0.0000000 0.1000000 0.4000000
215.5636
232.8766
321.6020
339.9326
432.6864
599.3706
0.0000000 0.1000000 -0.5000000
149.1623
165.2462
297.1758
360.3879
381.3252
649.8869
0.0000000 0.2000000 0.0000000
171.5820
181.7903
363.1985
405.9915
475.9718
648.0201
0.0000000 0.2000000 0.1000000
203.8485
204.8996
395.4184
398.6347
461.3963
639.8418
0.0000000 0.2000000 0.2000000
255.1058
269.5798
369.4926
418.0041
473.6034
614.0957
0.0000000 0.2000000 0.3000000
310.4695
324.1729
339.1700
356.7527
549.4968
566.0712
0.0000000 0.2000000 0.4000000
269.5655
287.7422
359.1663
403.5323
494.5079
603.9913
0.0000000 0.2000000 -0.5000000
216.7608
219.2593
391.7810
414.1737
453.1231
634.9771
0.0000000 0.3000000 0.0000000
242.6747
246.9988
436.3858
481.0080
550.5609
609.9511
0.0000000 0.3000000 0.1000000
259.3689
261.3067
428.7448
500.2248
525.3923
622.0836
0.0000000 0.3000000 0.2000000
300.4612
304.5327
404.7940
456.5817
557.8411
627.5788
0.0000000 0.3000000 0.3000000
353.4598
365.0484
365.8624
384.3723
601.5358
609.9527
0.0000000 0.3000000 0.4000000
315.5591
317.2984
395.8892
438.5255
570.4782
625.3487
0.0000000 0.3000000 -0.5000000
267.2543
270.9730
424.1426
498.8056
524.8089
625.3605
0.0000000 0.4000000 0.0000000
277.2381
311.1375
458.6241
547.8448
565.8949
601.4785
0.0000000 0.4000000 0.1000000
293.9318
310.2297
451.2957
521.6074
574.5072
629.1619
0.0000000 0.4000000 0.2000000
324.5095
333.9645
428.6222
459.0161
614.0925
651.2619
0.0000000 0.4000000 0.3000000
371.9137
380.7099
388.2582
391.5451
644.2078
648.7787
0.0000000 0.4000000 0.4000000
333.5560
345.9733
420.2300
440.8292
623.5593
653.0446
0.0000000 0.4000000 -0.5000000
302.8531
311.3296
446.9139
506.8351
584.3032
636.9558
0.0000000 -0.5000000 0.0000000
291.3330
358.2148
470.5570
526.9588
577.1098
625.5043
0.0000000 -0.5000000 0.1000000
307.1647
347.7610
463.0569
502.4055
600.8059
643.7166
0.0000000 -0.5000000 0.2000000
342.2294
345.8946
440.7001
449.1135
640.0486
666.8813
0.0000000 -0.5000000 0.3000000
373.3143
387.4326
391.5499
402.8928
665.7775
669.0508
0.0000000 -0.5000000 0.4000000
346.2389
357.6822
431.8343
433.3076
648.5713
669.7653
0.0000000 -0.5000000 -0.5000000
315.6788
344.1494
458.5937
490.6575
611.1978
650.9371
0.1000000 0.1000000 0.0000000
123.3312
137.6208
268.3548
389.5169
428.0071
664.7565
0.1000000 0.1000000 0.1000000
165.2727
170.6402
316.6663
380.0870
415.8733
651.7476
0.1000000 0.1000000 0.2000000
222.5416
240.3662
348.8398
379.0189
424.6089
613.8536
0.1000000 0.1000000 0.3000000
282.8897
295.9300
309.0955
323.4111
526.9028
548.8806
0.1000000 0.1000000 0.4000000
238.4647
257.7015
337.5991
365.9228
453.2772
599.8208
0.1000000 0.1000000 -0.5000000
178.8865
189.0532
341.4816
374.5869
408.6643
644.2664
0.1000000 0.2000000 0.0000000
190.2636
217.1160
370.2090
439.8608
486.0420
639.8653
0.1000000 0.2000000 0.1000000
212.8906
237.1272
393.3818
442.1532
469.6135
634.3271
0.1000000 0.2000000 0.2000000
268.1807
282.2388
390.1474
424.1260
492.1918
614.4449
0.1000000 0.2000000 0.3000000
324.9890
326.5964
361.5010
367.1100
558.8238
573.3805
0.1000000 0.2000000 0.4000000
284.6867
295.1707
382.3319
409.1419
510.3787
606.0559
0.1000000 0.2000000 -0.5000000
225.1239
247.4429
398.7623
448.6089
460.4531
630.8106
0.1000000 0.3000000 0.0000000
258.4337
280.4432
430.7656
508.5469
548.8390
602.4293
0.1000000 0.3000000 0.1000000
261.4301
298.9307
437.8596
506.6259
530.9116
617.5689
0.1000000 0.3000000 0.2000000
289.7885
338.0540
425.7845
455.1718
563.9441
626.2084
0.1000000 0.3000000 0.3000000
343.1961
355.5521
401.1751
408.3915
603.7053
611.3642
0.1000000 0.3000000 0.4000000
302.1748
348.5347
417.0364
440.8709
575.2881
624.7076
0.1000000 0.3000000 -0.5000000
265.6487
308.0160
438.0175
496.3539
535.2498
621.7341
0.1000000 0.4000000 0.0000000
316.3252
319.2010
466.4504
552.3395
558.5401
598.5538
0.1000000 0.4000000 0.1000000
305.0447
339.3628
464.4292
516.3412
577.4487
623.2538
0.1000000 0.4000000 0.2000000
310.0593
374.2463
432.9379
474.7904
612.0080
645.6703
0.1000000 0.4000000 0.3000000
348.7297
362.5946
427.4046
437.1939
640.1125
644.3316
0.1000000 0.4000000 0.4000000
316.8995
381.9783
421.5009
465.2318
620.7794
647.7137
0.1000000 0.4000000 -0.5000000
303.6318
347.5747
460.1214
504.5875
585.6011
630.9532
0.2000000 0.2000000 0.0000000
234.8782
251.0634
419.5662
478.0326
532.2712
616.9130
0.2000000 0.2000000 0.1000000
245.0489
271.1406
424.4469
488.6525
511.5436
622.7533
0.2000000 0.2000000 0.2000000
284.7286
314.4742
409.0198
449.5529
542.0340
621.8181
0.2000000 0.2000000 0.3000000
341.1864
350.0143
382.0018
390.2651
589.5393
599.1810
0.2000000 0.2000000 0.4000000
299.0779
326.8696
400.8707
433.3177
555.3971
618.2201
0.2000000 0.2000000 -0.5000000
252.4406
281.0843
423.3094
487.6852
509.9435
624.1215
0.2000000 0.3000000 0.0000000
287.8932
327.6206
442.9179
546.2951
559.5556
581.6861
0.2000000 0.3000000 0.1000000
282.7378
342.0016
457.9505
509.7178
558.9957
610.9561
0.2000000 0.3000000 0.2000000
295.4963
371.9827
446.4566
464.6755
585.5606
629.1329
0.2000000 0.3000000 0.3000000
341.1118
355.5165
433.6397
440.6545
616.6241
622.2222
0.2000000 0.3000000 0.4000000
304.6133
376.7925
434.4620
459.7402
594.4675
629.7441
0.2000000 0.3000000 -0.5000000
282.9079
349.3731
461.7906
494.5981
563.7207
617.9391
0.2000000 0.4000000 0.0000000
339.1837
385.6183
474.7338
539.5587
565.0023
596.7954
0.2000000 0.4000000 0.1000000
322.6014
397.0188
487.8902
500.7897
593.8602
607.7166
0.2000000 0.4000000 0.2000000
312.4022
401.8923
455.4400
506.3723
613.2295
633.7182
0.2000000 0.4000000 0.3000000
339.2112
351.7691
479.0770
486.6840
634.0040
636.9463
0.2000000 0.4000000 0.4000000
315.5332
391.2649
458.4965
503.4097
619.4607
636.9402
0.2000000 0.4000000 -0.5000000
317.3359
401.9797
477.7918
502.8326
598.0226
615.8104
0.3000000 0.3000000 0.0000000
324.4008
327.0373
470.2241
553.0412
555.7435
601.6163
0.3000000 0.3000000 0.1000000
310.0535
348.1431
467.9893
514.6706
580.8318
623.7417
0.3000000 0.3000000 0.2000000
311.3799
381.4711
433.1103
479.6194
614.8249
646.3308
0.3000000 0.3000000 0.3000000
347.3663
361.0437
434.9133
444.5759
641.9460
645.9070
0.3000000 0.3000000 0.4000000
317.3408
387.0874
423.0274
471.1153
623.3470
648.5889
0.3000000 0.3000000 -0.5000000
307.6920
356.2352
462.8209
504.3901
588.9869
631.3039
P = 5044.8600	V = 81.0010	E = -654.83297489000000	S_el = 0.00001006197500
0.0000000 0.0000000 0.0000000
0.0000
0.0000
0.0000
420.4689
420.4689
814.8888
0.0000000 0.0000000 0.1000000
104.8161
104.8161
232.6342
408.0318
408.0318
792.7591
0.0000000 0.0000000 0.2000000
197.4312
197.4312
367.2073
367.2073
439.1746
731.2003
0.0000000 0.0000000 0.3000000
280.1822
280.1822
299.9137
299.9137
599.2584
631.7192
0.0000000 0.0000000 0.4000000
219.1560
219.1560
352.1876
352.1876
484.7436
709.7889
0.0000000 0.0000000 -0.5000000
129.6234
129.6234
288.5783
400.5253
400.5253
780.5650
0.0000000 0.1000000 0.0000000
100.8265
112.7052
230.3026
435.1211
461.4970
803.5688
0.0000000 0.1000000 0.1000000
154.7821
169.1999
309.5765
423.3847
448.5454
783.8540
0.0000000 0.1000000 0.2000000
229.7609
249.5247
385.2906
407.3639
468.2733
728.5470
0.0000000 0.1000000 0.3000000
304.8432
323.0239
324.2634
342.6683
609.1034
638.4054
0.0000000 0.1000000 0.4000000
249.1470
268.7791
371.3578
392.6500
507.4971
709.1746
0.0000000 0.1000000 -0.5000000
173.0344
190.6665
347.8722
416.3424
440.8513
772.9529
0.0000000 0.2000000 0.0000000
196.5654
210.2494
426.7902
469.4489
551.8465
771.2625
0.0000000 0.2000000 0.1000000
234.8757
236.6036
459.5765
465.5955
535.1543
760.4438
0.0000000 0.2000000 0.2000000
294.4849
310.9427
426.4461
483.5799
556.7800
727.0433
0.0000000 0.2000000 0.3000000
358.0560
373.5574
391.4126
411.4896
647.2739
667.0345
0.0000000 0.2000000 0.4000000
310.6769
331.4321
414.6139
466.9147
580.9210
714.4931
0.0000000 0.2000000 -0.5000000
249.4691
252.9483
453.1078
485.3584
526.0192
754.2058
0.0000000 0.3000000 0.0000000
281.5455
283.0273
505.7307
566.1352
643.1196
722.9541
0.0000000 0.3000000 0.1000000
298.8702
302.5998
496.4944
585.6384
616.5522
736.7468
0.0000000 0.3000000 0.2000000
347.4508
351.9984
467.9636
531.2104
656.7135
741.9661
0.0000000 0.3000000 0.3000000
408.2839
421.7299
423.6745
445.3841
708.7017
718.8732
0.0000000 0.3000000 0.4000000
364.6456
366.2961
457.7081
510.2263
671.2096
738.8522
0.0000000 0.3000000 -0.5000000
308.0660
313.4900
491.1039
581.5531
618.1220
740.3509
0.0000000 0.4000000 0.0000000
323.6924
356.7256
532.6404
645.9463
667.1031
709.1076
0.0000000 0.4000000 0.1000000
342.4005
358.2276
523.8176
611.7233
678.2731
743.8196
0.0000000 0.4000000 0.2000000
377.1167
387.6929
496.8798
536.7050
724.2514
770.6659
0.0000000 0.4000000 0.3000000
433.0380
440.1719
453.1574
453.5433
760.5960
766.2902
0.0000000 0.4000000 0.4000000
387.5487
401.0849
487.2356
515.3686
735.2519
772.5102
0.0000000 0.4000000 -0.5000000
352.1442
360.3905
518.7020
594.4127
689.2463
753.2829
0.0000000 -0.5000000 0.0000000
342.0365
411.8106
547.2057
617.8127
681.9910
742.3938
0.0000000 -0.5000000 0.1000000
359.7112
403.2071
538.3711
588.9404
709.1351
764.3726
0.0000000 -0.5000000 0.2000000
399.9221
403.2876
510.8752
526.9270
755.6582
791.8135
0.0000000 -0.5000000 0.3000000
436.2579
452.4672
455.3597
468.1421
788.0186
792.4374
0.0000000 -0.5000000 0.4000000
404.5829
416.3549
501.5879
507.6707
765.8975
794.8368
0.0000000 -0.5000000 -0.5000000
369.0195
400.2969
533.2477
575.3690
720.9740
772.8985
0.1000000 0.1000000 0.0000000
141.3679
158.9660
314.9215
450.1308
494.8907
792.5197
0.1000000 0.1000000 0.1000000
191.0953
196.7751
371.7274
439.3181
480.9915
775.4542
0.1000000 0.1000000 0.2000000
257.3374
277.3866
402.5308
437.8163
498.9388
726.9275
0.1000000 0.1000000 0.3000000
326.3250
340.8939
356.5786
372.7046
620.6970
646.7058
0.1000000 0.1000000 0.4000000
275.1205
296.8526
389.7326
422.7767
532.0906
709.7415
0.1000000 0.1000000 -0.5000000
206.7962
217.5322
399.8478
433.3587
472.8547
765.9654
0.1000000 0.2000000 0.0000000
217.9115
250.9633
431.6939
513.2847
563.7062
760.9245
0.1000000 0.2000000 0.1000000
244.7484
273.9705
455.9229
518.6229
544.7349
753.4488
0.1000000 0.2000000 0.2000000
308.9606
325.5410
450.2081
491.2440
579.1191
727.3165
0.1000000 0.2000000 0.3000000
374.0265
375.9266
417.7152
424.2639
658.3653
675.7363
0.1000000 0.2000000 0.4000000
327.5503
339.9676
441.3881
473.9601
600.0376
716.8083
0.1000000 0.2000000 -0.5000000
258.7466
285.5139
460.8407
526.8143
534.6513
748.8638
0.1000000 0.3000000 0.0000000
295.9180
324.8504
499.5695
598.0673
641.7135
713.4771
0.1000000 0.3000000 0.1000000
300.7744
345.8310
506.5963
591.7606
625.7208
730.9374
0.1000000 0.3000000 0.2000000
334.4410
390.3050
492.5991
529.6973
664.7605
740.2186
0.1000000 0.3000000 0.3000000
396.2469
409.9338
465.2489
473.1422
711.6302
720.8077
0.1000000 0.3000000 0.4000000
348.4812
401.8965
483.1374
512.6865
677.6497
738.0403
0.1000000 0.3000000 -0.5000000
305.8941
355.9415
506.5761
579.1422
631.4417
735.6557
0.1000000 0.4000000 0.0000000
366.3895
367.7028
541.3972
650.2876
658.3795
706.2028
0.1000000 0.4000000 0.1000000
352.1986
393.9684
538.7038
605.2908
682.2565
736.4835
0.1000000 0.4000000 0.2000000
359.2957
433.7578
504.0527
553.4272
722.3233
763.6932
0.1000000 0.4000000 0.3000000
404.4301
420.1301
497.1600
508.1085
755.8430
761.0139
0.1000000 0.4000000 0.4000000
367.1230
442.0485
491.6051
541.7975
732.4122
765.9025
0.1000000 0.4000000 -0.5000000
351.0052
403.3288
534.0417
591.1971
691.4702
745.7791
0.2000000 0.2000000 0.0000000
268.9429
290.7524
486.8100
561.4938
620.5238
731.8114
0.2000000 0.2000000 0.1000000
281.9235
313.5830
490.9930
572.3530
599.0446
738.1620
0.2000000 0.2000000 0.2000000
328.4525
363.1066
472.6125
522.3343
638.2686
735.3602
0.2000000 0.2000000 0.3000000
393.5182
403.3169
442.3453
451.9305
694.6001
706.1795
0.2000000 0.2000000 0.4000000
344.6722
376.9560
463.4231
503.4824
653.5499
730.5896
0.2000000 0.2000000 -0.5000000
290.5629
324.6880
489.4517
568.2884
600.1985
739.4523
0.2000000 0.3000000 0.0000000
329.7369
379.3852
513.9864
641.2599
657.9294
687.4045
0.2000000 0.3000000 0.1000000
325.2931
395.6198
530.1978
596.0925
660.7768
721.6906
0.2000000 0.3000000 0.2000000
341.1580
429.0847
520.8266
538.4305
691.4424
743.3325
0.2000000 0.3000000 0.3000000
394.2898
410.5339
503.4320
510.7693
727.5196
734.1311
0.2000000 0.3000000 0.4000000
351.5379
434.2330
507.3283
532.4659
701.4275
743.8275
0.2000000 0.3000000 -0.5000000
325.9115
403.7214
534.3181
578.6185
666.2388
729.9816
0.2000000 0.4000000 0.0000000
389.1952
447.6944
552.1782
634.1852
663.0916
705.8883
0.2000000 0.4000000 0.1000000
371.9021
460.2050
568.1880
585.4280
701.8352
717.2642
0.2000000 0.4000000 0.2000000
361.6112
464.8529
533.2732
588.0138
725.1129
748.5268
0.2000000 0.4000000 0.3000000
393.2720
407.6786
557.5742
565.8804
748.8723
752.2525
0.2000000 0.4000000 0.4000000
365.2694
453.4763
535.5245
584.8035
732.0397
752.3087
0.2000000 0.4000000 -0.5000000
366.4936
465.4078
559.6532
584.5236
707.2846
726.5871
0.3000000 0.3000000 0.0000000
374.1759
378.4527
545.8735
651.0014
654.7165
710.3950
0.3000000 0.3000000 0.1000000
357.9997
404.2913
543.0163
603.3327
686.1698
737.2356
0.3000000 0.3000000 0.2000000
360.9099
442.0876
504.9290
558.8484
725.7664
764.5854
0.3000000 0.3000000 0.3000000
402.9531
418.4806
506.0636
516.8735
758.1639
763.0323
0.3000000 0.3000000 0.4000000
367.7433
447.9412
493.9360
548.5779
735.5862
767.0540
0.3000000 0.3000000 -0.5000000
355.7728
413.4813
537.5714
590.7626
695.4730
746.3233
weight
   0.0000000   0.0000000   0.0000000   0.0020000
   0.0000000   0.0000000   0.1000000   0.0040000
   0.0000000   0.0000000   0.2000000   0.0040000
   0.0000000   0.0000000   0.3000000   0.0040000
   0.0000000   0.0000000   0.4000000   0.0040000
   0.0000000   0.0000000  -0.5000000   0.0020000
   0.0000000   0.1000000   0.0000000   0.0120000
   0.0000000   0.1000000   0.1000000   0.0240000
   0.0000000   0.1000000   0.2000000   0.0240000
   0.0000000   0.1000000   0.3000000   0.0240000
   0.0000000   0.1000000   0.4000000   0.0240000
   0.0000000   0.1000000  -0.5000000   0.0120000
   0.0000000   0.2000000   0.0000000   0.0120000
   0.0000000   0.2000000   0.1000000   0.0240000
   0.0000000   0.2000000   0.2000000   0.0240000
   0.0000000   0.2000000   0.3000000   0.0240000
   0.0000000   0.2000000   0.4000000   0.0240000
   0.0000000   0.2000000  -0.5000000   0.0120000
   0.0000000   0.3000000   0.0000000   0.0120000
   0.0000000   0.3000000   0.1000000   0.0240000
   0.0000000   0.3000000   0.2000000   0.0240000
   0.0000000   0.3000000   0.3000000   0.0240000
   0.0000000   0.3000000   0.4000000   0.0240000
   0.0000000   0.3000000  -0.5000000   0.0120000
   0.0000000   0.4000000   0.0000000   0.0120000
   0.0000000   0.4000000   0.1000000   0.0240000
   0.0000000   0.4000000   0.2000000   0.0240000
   0.0000000   0.4000000   0.3000000   0.0240000
   0.0000000   0.4000000   0.4000000   0.0240000
   0.0000000   0.4000000  -0.5000000   0.0120000
   0.0000000  -0.5000000   0.0000000   0.0060000
   0.0000000  -0.5000000   0.1000000   0.0120000
   0.0000000  -0.5000000   0.2000000   0.0120000
   0.0000000  -0.5000000   0.3000000   0.0120000
   0.0000000  -0.5000000   0.4000000   0.0120000
   0.0000000  -0.5000000  -0.5000000   0.0060000
   0.1000000   0.1000000   0.0000000   0.0120000
   0.1000000   0.1000000   0.1000000   0.0240000
   0.1000000   0.1000000   0.2000000   0.0240000
   0.1000000   0.1000000   0.3000000   0.0240000
   0.1000000   0.1000000   0.4000000   0.0240000
   0.1000000   0.1000000  -0.5000000   0.0120000
   0.1000000   0.2000000   0.0000000   0.0240000
   0.1000000   0.2000000   0.1000000   0.0480000
   0.1000000   0.2000000   0.2000000   0.0480000
   0.1000000   0.2000000   0.3000000   0.0480000
   0.1000000   0.2000000   0.4000000   0.0480000
   0.1000000   0.2000000  -0.5000000   0.0240000
   0.1000000   0.3000000   0.0000000   0.0240000
   0.1000000   0.3000000   0.1000000   0.0480000
   0.1000000   0.3000000   0.2000000   0.0480000
   0.1000000   0.3000000   0.3000000   0.0480000
   0.1000000   0.3000000   0.4000000   0.0480000
   0.1000000   0.3000000  -0.5000000   0.0240000
   0.1000000   0.4000000   0.0000000   0.0240000
   0.1000000   0.4000000   0.1000000   0.0480000
   0.1000000   0.4000000   0.2000000   0.0480000
   0.1000000   0.4000000   0.3000000   0.0480000
   0.1000000   0.4000000   0.4000000   0.0480000
   0.1000000   0.4000000  -0.5000000   0.0240000
   0.2000000   0.2000000   0.0000000   0.0120000
   0.2000000   0.2000000   0.1000000   0.0240000
   0.2000000   0.2000000   0.2000000   0.0240000
   0.2000000   0.2000000   0.3000000   0.0240000
   0.2000000   0.2000000   0.4000000   0.0240000
   0.2000000   0.2000000  -0.5000000   0.0120000
   0.2000000   0.3000000   0.0000000   0.0240000
   0.2000000   0.3000000   0.1000000   0.0480000
   0.2000000   0.3000000   0.2000000   0.0480000
   0.2000000   0.3000000   0.3000000   0.0480000
   0.2000000   0.3000000   0.4000000   0.0480000
   0.2000000   0.3000000  -0.5000000   0.0240000
   0.2000000   0.4000000   0.0000000   0.0120000
   0.2000000   0.4000000   0.1000000   0.0240000
   0.2000000   0.4000000   0.2000000   0.0240000
   0.2000000   0.4000000   0.3000000   0.0240000
   0.2000000   0.4000000   0.4000000   0.0240000
   0.2000000   0.4000000  -0.5000000   0.0120000
   0.3000000   0.3000000   0.0000000   0.0120000
   0.3000000   0.3000000   0.1000000   0.0240000
   0.3000000   0.3000000   0.2000000   0.0240000
   0.3000000   0.3000000   0.3000000   0.0240000
   0.3000000   0.3000000   0.4000000   0.0240000
   0.3000000   0.3000000  -0.5000000   0.0120000