Number of volumes (nv), q-vectors (nq), normal mode (np), formula units(nm)
10 84 6 1

P	=	0.36	V	=	142.5929	E	=	-655.50204647
0.0 0.0 0.0
-0.0
-0.0
0.0
186.6382
186.6382
285.1632
0.0 0.0 0.1
42.9998
42.9998
96.1162
180.6989
180.6989
283.4162
0.0 0.0 0.2
83.8419
83.8419
162.0121
162.0121
177.078
273.2601
0.0 0.0 0.3
122.1203
122.1203
131.5204
131.5204
234.6133
245.6475
0.0 0.0 0.4
94.2118
94.2118
154.9695
154.9695
194.6531
268.0042
0.0 0.0 -0.5
53.9968
53.9968
119.408
177.0536
177.0536
281.9331
0.0 0.1 0.0
47.012
50.6236
92.7689
192.2553
202.0969
282.6303
0.0 0.1 0.1
67.4705
76.5735
124.1472
186.9666
196.3565
281.093
0.0 0.1 0.2
99.9371
109.713
170.1135
178.7024
187.1602
272.118
0.0 0.1 0.3
133.9401
142.442
142.5811
150.9448
237.6725
247.5157
0.0 0.1 0.4
108.9944
118.4019
163.7241
172.2193
202.3496
267.45
0.0 0.1 -0.5
75.4179
85.5356
140.3741
183.6984
192.8755
279.7871
0.0 0.2 0.0
91.1876
93.3678
169.862
204.6996
234.0242
275.4313
0.0 0.2 0.1
104.9336
107.1011
185.5585
200.7273
227.165
275.7262
0.0 0.2 0.2
130.3698
138.4319
187.5747
208.0332
219.915
272.1514
0.0 0.2 0.3
158.2826
165.2394
171.4783
179.8433
251.3317
257.5375
0.0 0.2 0.4
137.7797
147.2026
182.4742
201.3161
229.1437
269.6007
0.0 0.2 -0.5
110.8885
114.7419
193.7683
198.2245
223.2121
275.4817
0.0 0.3 0.0
122.5632
129.8163
216.243
221.5982
260.4938
264.7924
0.0 0.3 0.1
132.5234
133.8673
213.2502
233.011
244.7448
274.959
0.0 0.3 0.2
151.393
154.948
203.0571
219.8425
255.5691
280.2227
0.0 0.3 0.3
179.1209
180.7002
184.9524
189.1699
273.0468
275.9797
0.0 0.3 0.4
158.337
161.4619
199.0071
212.211
261.0151
280.1288
0.0 0.3 -0.5
136.973
137.7399
211.3413
237.281
240.3397
277.1055
0.0 0.4 0.0
136.9839
160.5572
223.0343
248.1974
252.726
271.9179
0.0 0.4 0.1
146.2688
156.038
220.2818
239.7824
258.8602
280.0415
0.0 0.4 0.2
158.4585
167.5052
211.3086
215.6211
275.9481
287.9924
0.0 0.4 0.3
178.9825
186.4084
190.0584
195.3383
286.8302
288.2298
0.0 0.4 0.4
162.2573
173.6622
207.7763
208.1402
279.6373
288.8879
0.0 0.4 -0.5
151.1849
155.0886
218.572
234.1915
263.4838
282.6989
0.0 -0.5 0.0
140.9188
180.9613
225.6941
242.2967
258.3077
271.6366
0.0 -0.5 0.1
149.9294
170.647
222.7316
231.5819
268.8529
279.2227
0.0 -0.5 0.2
162.4052
170.8923
208.9743
213.7441
283.4697
288.5479
0.0 -0.5 0.3
175.5136
181.8903
193.1552
198.2976
290.5975
291.1563
0.0 -0.5 0.4
163.7125
177.0
201.9002
210.3187
286.154
289.9642
0.0 -0.5 -0.5
154.749
166.9737
220.9606
226.4403
273.1447
282.1108
0.1 0.1 0.0
65.8234
71.0542
126.51
197.6258
214.3448
280.1627
0.1 0.1 0.1
84.5275
89.8176
148.7943
192.8912
208.5031
279.0021
0.1 0.1 0.2
113.13
123.4486
177.5939
190.9633
198.2209
271.5156
0.1 0.1 0.3
144.0559
151.0817
156.7448
164.0701
241.5942
250.1822
0.1 0.1 0.4
121.3528
132.0109
171.7811
184.6145
211.0591
267.5089
0.1 0.1 -0.5
91.3305
98.8994
160.7485
189.9474
205.0017
277.9535
0.1 0.2 0.0
101.0544
111.0554
177.3862
214.5289
237.9404
273.1471
0.1 0.2 0.1
112.0159
121.2926
192.3629
211.7691
230.1587
274.3938
0.1 0.2 0.2
138.3797
144.2782
197.6104
209.8428
227.2903
272.6614
0.1 0.2 0.3
166.4782
167.3732
181.48
183.6332
255.1114
260.5254
0.1 0.2 0.4
146.4067
150.9648
193.4276
203.0116
235.454
270.6888
0.1 0.2 -0.5
117.9499
126.6368
198.8657
210.9855
225.8343
274.5862
0.1 0.3 0.0
135.9406
141.5461
212.1072
234.5575
258.9379
262.7589
0.1 0.3 0.1
135.5013
151.3571
218.3597
237.0176
243.4219
273.7773
0.1 0.3 0.2
147.4739
171.5732
210.8941
220.4635
256.578
279.6073
0.1 0.3 0.3
172.9042
179.692
197.9722
202.2816
273.1504
275.9171
0.1 0.3 0.4
153.304
177.1296
205.3076
215.5502
261.7038
279.6522
0.1 0.3 -0.5
136.9924
156.129
218.7035
235.4647
242.9609
276.086
0.1 0.4 0.0
156.7323
164.9484
227.945
249.4819
250.8879
269.9032
0.1 0.4 0.1
154.6332
168.6035
226.4749
239.335
258.3516
277.9593
0.1 0.4 0.2
154.0936
186.4635
207.5893
227.8365
274.0914
285.987
0.1 0.4 0.3
171.6201
178.4097
208.2302
212.9568
284.8264
286.2281
0.1 0.4 0.4
157.0029
191.0304
201.4198
224.4457
277.6966
286.8902
0.1 0.4 -0.5
153.1244
172.568
223.2846
236.0999
262.3659
280.6394
0.2 0.2 0.0
123.9292
127.3707
205.4558
224.1963
254.2916
266.7428
0.2 0.2 0.1
127.4692
137.9686
212.1831
227.1599
241.7785
273.4698
0.2 0.2 0.2
145.5017
159.947
205.26
218.3935
248.4382
277.3297
0.2 0.2 0.3
172.9342
178.0693
189.7236
193.6757
267.9903
271.4486
0.2 0.2 0.4
152.3836
166.2582
200.971
211.5701
254.3876
276.8542
0.2 0.2 -0.5
130.7166
143.1233
212.2623
231.0109
236.7115
275.2138
0.2 0.3 0.0
150.9333
164.2318
217.5154
248.7272
257.1485
260.2204
0.2 0.3 0.1
145.9957
172.0963
227.0459
237.9371
250.7658
273.3108
0.2 0.3 0.2
149.6324
188.8188
212.3217
229.3905
263.2754
280.8172
0.2 0.3 0.3
170.7706
177.9791
212.6538
216.8809
276.9155
279.0589
0.2 0.3 0.4
153.7528
191.6583
207.002
226.9181
267.5225
281.3195
0.2 0.3 -0.5
145.2374
176.1724
228.5925
232.7147
252.6527
276.0715
0.2 0.4 0.0
175.7179
189.5939
230.1703
245.8795
259.0136
265.0689
0.2 0.4 0.1
164.4371
196.4162
229.2498
241.2094
262.9754
272.8307
0.2 0.4 0.2
155.8512
199.6414
215.2598
244.7952
271.7942
281.9356
0.2 0.4 0.3
167.3403
173.3246
230.7151
234.5178
281.4047
282.6805
0.2 0.4 0.4
156.8343
192.9192
219.0172
242.9166
274.901
283.0
0.2 0.4 -0.5
160.7084
199.7362
223.1228
244.1291
264.2303
275.8787
0.3 0.3 0.0
160.9104
168.1874
229.4648
249.3696
250.9075
270.0069
0.3 0.3 0.1
157.0378
172.4877
227.2515
239.2406
259.5535
277.7755
0.3 0.3 0.2
154.547
189.9041
206.6373
230.1058
274.8257
285.9146
0.3 0.3 0.3
170.7255
177.3633
211.3072
215.9218
285.1082
286.415
0.3 0.3 0.4
157.0053
193.3793
201.3398
226.9524
278.3021
286.8732
0.3 0.3 -0.5
154.9947
176.4369
223.278
236.9319
263.4572
280.4602
P	=	200.71	V	=	132.9105	E	=	-655.49587009
0.0 0.0 0.0
-0.0
0.0
0.0
212.2038
212.2038
336.0737
0.0 0.0 0.1
52.3123
52.3123
106.4641
205.6092
205.6092
332.4262
0.0 0.0 0.2
99.1188
99.1188
184.7789
184.7789
199.7567
317.6516
0.0 0.0 0.3
140.8835
140.8835
151.1861
151.1861
269.1093
282.7859
0.0 0.0 0.4
110.6068
110.6068
176.9058
176.9058
220.8025
310.7537
0.0 0.0 -0.5
65.3353
65.3353
133.0095
201.516
201.516
329.9124
0.0 0.1 0.0
50.0671
58.1281
107.2929
218.7072
230.3713
332.8119
0.0 0.1 0.1
78.884
84.5828
142.1959
212.7808
223.8598
329.533
0.0 0.1 0.2
116.4144
125.6235
193.9038
203.875
213.0747
316.3913
0.0 0.1 0.3
153.8915
163.2563
163.2786
172.6874
273.2886
285.4105
0.0 0.1 0.4
126.5585
135.863
186.7357
196.4967
231.0153
310.2628
0.0 0.1 -0.5
88.3944
96.0006
160.1331
209.0864
219.8768
327.2894
0.0 0.2 0.0
98.1869
107.3178
196.9287
233.3056
268.3223
323.4472
0.0 0.2 0.1
116.8706
120.7709
214.7974
228.7254
260.2302
322.6384
0.0 0.2 0.2
149.7659
155.0455
213.7739
237.6109
253.9372
316.6421
0.0 0.2 0.3
180.9645
188.7648
194.6628
204.568
290.8234
298.3485
0.0 0.2 0.4
158.1441
165.7638
207.9919
229.6658
264.6997
313.2547
0.0 0.2 -0.5
126.1655
127.6768
224.1629
225.8372
255.5123
321.8368
0.0 0.3 0.0
141.1469
141.7849
247.3145
257.8818
301.0506
309.4004
0.0 0.3 0.1
147.6043
152.1933
243.7162
270.5066
282.7227
320.4684
0.0 0.3 0.2
169.7467
177.2941
231.8432
251.7467
296.9988
326.4236
0.0 0.3 0.3
204.5745
204.9335
211.2221
215.0668
317.6806
321.2164
0.0 0.3 0.4
178.242
184.6782
227.169
242.4893
303.436
326.2509
0.0 0.3 -0.5
151.738
158.0485
241.4418
273.388
279.1224
322.9488
0.0 0.4 0.0
158.2168
177.8057
256.1754
290.1091
293.2649
317.3663
0.0 0.4 0.1
168.3202
174.1685
252.7814
276.9449
302.403
327.1976
0.0 0.4 0.2
178.945
191.8824
242.0771
247.3724
322.4583
336.9084
0.0 0.4 0.3
203.6316
212.485
217.4629
223.5593
335.6196
337.3187
0.0 0.4 0.4
183.6978
198.8622
237.9148
238.3059
326.9262
338.0357
0.0 0.4 -0.5
173.6866
173.7603
250.6921
269.983
307.7729
330.4475
0.0 -0.5 0.0
163.2623
202.5258
260.1164
279.214
302.7252
320.1823
0.0 -0.5 0.1
173.0645
192.2855
256.4687
266.8553
314.8346
328.5586
0.0 -0.5 0.2
184.5913
196.2878
240.0289
245.633
332.5913
339.4709
0.0 -0.5 0.3
200.4339
207.9932
221.5596
227.531
341.7581
342.5204
0.0 -0.5 0.4
186.3791
203.2043
231.5755
241.5438
336.0132
341.1735
0.0 -0.5 -0.5
178.3915
188.6169
254.2922
260.7404
319.9594
331.908
0.1 0.1 0.0
70.376
81.5646
146.4391
224.9946
244.8409
329.6163
0.1 0.1 0.1
97.2072
98.6683
171.6431
219.6403
238.0971
326.8982
0.1 0.1 0.2
130.776
139.5358
202.3744
217.9363
227.2448
315.7648
0.1 0.1 0.3
165.0743
172.6968
178.8997
187.2021
278.4674
288.9739
0.1 0.1 0.4
140.0416
149.9113
195.8426
210.5949
242.2517
310.4974
0.1 0.1 -0.5
105.7857
109.3585
185.0058
216.2956
234.0237
325.021
0.1 0.2 0.0
109.1684
127.3336
205.1979
245.6915
273.1127
320.4376
0.1 0.2 0.1
122.4382
139.1141
221.4575
243.0785
263.9306
320.8405
0.1 0.2 0.2
154.8551
165.2038
225.1101
239.7831
263.0998
317.2974
0.1 0.2 0.3
189.1396
190.4972
207.0254
209.2135
295.6228
302.1618
0.1 0.2 0.4
164.7011
172.7394
220.4362
231.6733
272.5638
314.6682
0.1 0.2 -0.5
129.785
145.2692
227.7918
243.2063
258.7477
320.6242
0.1 0.3 0.0
148.8309
162.5346
243.774
272.2769
299.4106
306.6441
0.1 0.3 0.1
149.8479
173.1891
249.5521
274.8055
282.0724
318.9949
0.1 0.3 0.2
165.379
195.9181
241.0509
252.3089
298.6645
325.8161
0.1 0.3 0.3
195.8155
203.8888
226.4035
231.2581
318.0956
321.4021
0.1 0.3 0.4
172.5162
202.1487
234.5804
246.3959
304.6548
325.8513
0.1 0.3 -0.5
152.069
178.5914
249.7614
271.0278
283.0498
321.7254
0.1 0.4 0.0
180.569
182.9418
261.7795
290.7028
291.8627
315.1148
0.1 0.4 0.1
173.5774
192.7622
259.8821
275.9947
302.3422
324.6651
0.1 0.4 0.2
173.8204
213.3735
237.7942
261.7092
320.5251
334.5101
0.1 0.4 0.3
194.7164
202.7186
238.9258
244.3782
333.3466
335.0206
0.1 0.4 0.4
177.4386
218.1459
230.8426
257.687
324.8338
335.6716
0.1 0.4 -0.5
171.9205
197.6201
256.1938
271.7894
306.9405
327.9368
0.2 0.2 0.0
135.0221
146.3093
236.594
258.9192
293.2965
311.9694
0.2 0.2 0.1
140.5767
157.7849
242.4169
263.6199
278.6881
318.9669
0.2 0.2 0.2
163.1451
182.6033
234.2185
249.9024
288.575
322.9384
0.2 0.2 0.3
196.118
202.3823
216.5327
220.9989
311.5381
315.6961
0.2 0.2 0.4
171.5565
189.7524
229.3035
241.6878
295.5363
322.2686
0.2 0.2 -0.5
144.8178
163.6443
242.1978
267.4638
273.2188
320.8496
0.2 0.3 0.0
166.2773
188.4451
250.2745
289.9366
299.0746
301.6253
0.2 0.3 0.1
162.0292
197.1121
259.9061
274.5576
292.9937
318.3147
0.2 0.3 0.2
167.935
215.4296
243.5841
262.4539
307.4198
327.593
0.2 0.3 0.3
193.2296
201.738
243.7214
248.4754
323.2264
325.7438
0.2 0.3 0.4
173.0408
218.104
237.5704
259.705
312.3191
328.2656
0.2 0.3 -0.5
161.671
201.6624
261.7136
267.6212
295.3739
321.7296
0.2 0.4 0.0
195.6604
218.1585
265.4873
283.8187
301.9065
310.3866
0.2 0.4 0.1
184.0964
225.5704
263.8393
277.2516
308.5952
318.232
0.2 0.4 0.2
175.5706
227.1183
248.3307
281.5474
318.6242
329.6086
0.2 0.4 0.3
189.4394
196.4888
265.6301
270.0159
329.5713
331.0124
0.2 0.4 0.4
176.9448
219.285
252.4305
279.5192
322.1411
331.0452
0.2 0.4 -0.5
180.2102
229.1044
256.609
280.4071
310.2349
321.9712
0.3 0.3 0.0
185.3956
186.8006
263.6403
288.6419
293.6151
315.5711
0.3 0.3 0.1
176.3281
197.4113
260.9146
275.7272
303.897
324.622
0.3 0.3 0.2
174.3806
217.3137
236.8105
264.4788
321.5557
334.5701
0.3 0.3 0.3
193.6833
201.503
242.631
247.9669
333.8465
335.4053
0.3 0.3 0.4
177.4659
220.4795
231.2196
260.7519
325.7136
335.8026
0.3 0.3 -0.5
174.1054
202.1909
256.281
272.6875
308.3801
327.878
P	=	499.64	V	=	123.1893	E	=	-655.47338611
0.0 0.0 0.0
-0.0
-0.0
0.0
242.6953
242.6953
397.8899
0.0 0.0 0.1
63.869
63.869
123.3177
235.5234
235.5234
392.1886
0.0 0.0 0.2
117.7757
117.7757
212.2885
212.2885
231.4004
371.8642
0.0 0.0 0.3
163.541
163.541
174.8555
174.8555
312.5002
328.7878
0.0 0.0 0.4
130.4533
130.4533
203.4608
203.4608
255.8601
363.0358
0.0 0.0 -0.5
79.2624
79.2624
154.0442
231.0043
231.0043
388.4998
0.0 0.1 0.0
57.5727
67.2215
124.4097
250.2069
263.8514
393.7873
0.0 0.1 0.1
92.8401
98.0407
165.3265
243.7076
256.6308
388.6261
0.0 0.1 0.2
136.3335
146.0708
222.548
234.086
247.106
370.4158
0.0 0.1 0.3
177.8374
188.2356
188.3087
198.8587
317.5091
331.9772
0.0 0.1 0.4
147.6446
157.6636
214.4773
225.7082
267.9297
362.5277
0.0 0.1 -0.5
104.1633
111.6007
186.0195
239.603
252.1664
385.3078
0.0 0.2 0.0
112.5595
124.0884
228.7423
267.3513
308.6402
382.0074
0.0 0.2 0.1
134.1486
139.7437
249.3423
262.1819
299.4419
379.9254
0.0 0.2 0.2
172.8243
178.128
245.154
273.2545
294.6912
370.5799
0.0 0.2 0.3
207.9436
216.744
223.64
235.049
338.1342
347.2483
0.0 0.2 0.4
182.2662
190.4349
238.5651
264.0694
307.2213
366.0163
0.0 0.2 -0.5
144.8755
147.6944
258.9041
260.1329
294.0368
378.4119
0.0 0.3 0.0
162.1246
163.2714
284.437
300.3696
348.7734
364.2618
0.0 0.3 0.1
169.1637
175.4337
280.191
314.2284
328.7538
375.5094
0.0 0.3 0.2
195.0309
203.5541
266.3083
291.332
345.3174
381.624
0.0 0.3 0.3
234.7327
236.1232
242.398
248.0204
370.0034
374.4064
0.0 0.3 0.4
204.9203
211.937
260.8732
280.3746
352.8703
381.1322
0.0 0.3 -0.5
174.0342
181.9337
277.5205
316.6347
325.1626
378.2164
0.0 0.4 0.0
183.2939
203.3015
295.9898
339.0879
343.6386
371.0298
0.0 0.4 0.1
194.0878
199.9572
291.8906
323.1386
353.3477
383.3467
0.0 0.4 0.2
206.5492
220.2806
279.0947
287.7378
376.5924
394.9921
0.0 0.4 0.3
235.9116
246.3816
249.9408
257.1265
392.7003
394.9164
0.0 0.4 0.4
212.2619
228.2693
274.1446
276.9689
381.9476
396.2332
0.0 0.4 -0.5
199.7268
200.0136
289.3822
314.7542
359.4552
387.3127
0.0 -0.5 0.0
189.5472
232.164
301.6154
325.3784
354.7878
377.4432
0.0 -0.5 0.1
199.8963
221.6006
297.2475
311.119
368.7604
387.1151
0.0 -0.5 0.2
214.3067
225.6758
279.8652
284.224
390.0216
399.8953
0.0 -0.5 0.3
233.4578
242.3476
255.2714
262.4176
401.8142
402.9549
0.0 -0.5 0.4
216.6565
233.6412
269.9833
279.2956
394.2938
401.8232
0.0 -0.5 -0.5
205.6602
217.8512
294.6384
304.0208
374.7795
391.0445
0.1 0.1 0.0
80.8262
94.2637
169.8913
257.5577
280.8138
389.769
0.1 0.1 0.1
112.4057
114.4557
199.3571
251.6443
273.2264
385.3573
0.1 0.1 0.2
151.9657
161.0548
232.1353
250.247
263.6855
369.6823
0.1 0.1 0.3
190.2057
198.6265
205.86
215.2042
323.6448
336.2294
0.1 0.1 0.4
162.3569
172.8948
224.7692
241.8456
281.0973
362.8399
0.1 0.1 -0.5
123.2318
126.2011
214.8057
247.9196
268.6074
382.5157
0.1 0.2 0.0
124.9821
146.8652
237.5682
282.894
314.468
378.2164
0.1 0.2 0.1
140.3823
160.4227
255.3592
280.7462
304.0266
377.5702
0.1 0.2 0.2
177.6999
190.0906
258.0473
276.0448
305.5881
371.2781
0.1 0.2 0.3
216.9038
218.4516
237.9597
240.6325
343.8346
351.7806
0.1 0.2 0.4
188.9962
198.5888
252.8199
266.6222
316.5558
367.6515
0.1 0.2 -0.5
148.8635
167.4606
261.634
281.91
298.0664
376.7772
0.1 0.3 0.0
169.917
187.4296
280.6044
317.1148
347.1137
360.7574
0.1 0.3 0.1
171.5287
199.195
286.486
319.3367
328.7964
373.6663
0.1 0.3 0.2
189.7489
224.7155
277.6364
291.3855
347.7184
380.9902
0.1 0.3 0.3
225.0593
234.2251
260.6801
266.054
370.7251
374.828
0.1 0.3 0.4
198.0434
231.7571
270.6162
283.9739
354.6665
380.7799
0.1 0.3 -0.5
174.1993
205.2217
286.7441
314.2961
330.177
376.7277
0.1 0.4 0.0
208.501
208.8145
301.9391
340.3199
341.4498
368.555
0.1 0.4 0.1
198.9686
221.8647
300.1142
321.3659
353.8193
380.2968
0.1 0.4 0.2
200.0666
245.0645
275.8981
302.7378
374.553
392.1144
0.1 0.4 0.3
224.8498
234.1782
275.5824
281.9521
390.0823
392.2389
0.1 0.4 0.4
204.4382
250.4949
267.8895
297.8294
379.6588
393.414
0.1 0.4 -0.5
197.2637
227.3288
296.3351
315.7903
358.9529
384.2767
0.2 0.2 0.0
154.3316
168.8696
272.7269
300.4582
339.1933
367.518
0.2 0.2 0.1
161.0416
181.6457
278.2291
306.4677
323.1026
374.266
0.2 0.2 0.2
187.1852
209.63
268.9444
288.6558
335.5027
377.5966
0.2 0.2 0.3
225.1834
232.1649
249.208
254.2746
362.6982
367.8294
0.2 0.2 0.4
196.8982
217.7418
263.4271
278.8912
343.6008
376.4522
0.2 0.2 -0.5
165.9894
188.2208
277.89
309.9722
317.5738
376.1185
0.2 0.3 0.0
189.516
217.0233
288.1104
338.7684
350.5621
351.0887
0.2 0.3 0.1
185.2485
226.5287
298.4893
319.5739
342.7451
372.4363
0.2 0.3 0.2
192.7047
246.8311
282.7995
301.8439
358.7841
383.2822
0.2 0.3 0.3
222.3739
232.2316
280.7416
286.0592
377.341
380.465
0.2 0.3 0.4
198.7304
249.919
275.5485
298.7807
364.3908
383.9334
0.2 0.3 -0.5
185.0397
231.5552
300.8788
310.8654
345.4151
376.5134
0.2 0.4 0.0
222.8488
251.4753
306.2463
331.369
352.4021
364.0709
0.2 0.4 0.1
210.5202
259.5323
307.2016
319.6299
362.1208
372.4052
0.2 0.4 0.2
201.8792
261.9281
287.8605
325.0619
373.1386
386.1918
0.2 0.4 0.3
218.7161
227.0129
306.8796
311.9707
385.8763
387.6648
0.2 0.4 0.4
203.7141
253.3686
291.9483
322.8838
377.1073
387.8904
0.2 0.4 -0.5
206.393
263.331
298.9442
323.1481
364.0136
376.9263
0.3 0.3 0.0
213.1921
214.0318
304.1537
337.6505
343.5801
369.4344
0.3 0.3 0.1
202.0961
227.2441
301.6532
320.759
355.7663
380.3907
0.3 0.3 0.2
200.7499
249.6031
275.0049
305.9728
375.9384
392.3185
0.3 0.3 0.3
223.7338
232.8697
279.9752
286.2289
390.846
392.8614
0.3 0.3 0.4
204.5207
253.3941
268.3285
301.4643
380.8709
393.7117
0.3 0.3 -0.5
199.7658
232.6208
296.8693
316.4951
360.7928
384.3342
P	=	750.23	V	=	117.2947	E	=	-655.44853318
0.0 0.0 0.0
-0.0
0.0
0.0
260.8003
260.8003
439.8624
0.0 0.0 0.1
67.2199
67.2199
136.0568
252.9396
252.9396
432.8099
0.0 0.0 0.2
125.8059
125.8059
228.189
228.189
254.0311
408.6736
0.0 0.0 0.3
176.1323
176.1323
188.4075
188.4075
342.2286
360.1981
0.0 0.0 0.4
139.8664
139.8664
218.8229
218.8229
280.6837
398.4817
0.0 0.0 -0.5
83.7971
83.7971
169.8693
248.0464
248.0464
428.3042
0.0 0.1 0.0
63.4072
71.6925
134.8926
269.1034
284.1453
435.1207
0.0 0.1 0.1
98.6991
106.5837
180.4705
261.9385
276.2203
428.6414
0.0 0.1 0.2
145.893
157.1695
239.2524
251.9984
270.8721
406.8954
0.0 0.1 0.3
191.3599
202.6414
202.8691
214.2975
347.7138
363.6711
0.0 0.1 0.4
158.3789
169.7149
230.6396
243.0179
293.7046
397.786
0.0 0.1 -0.5
110.8898
120.7627
203.6463
257.4658
271.358
424.5463
0.0 0.2 0.0
123.4995
132.5221
248.322
288.1005
333.724
421.5095
0.0 0.2 0.1
146.7855
149.4059
271.1895
282.3263
323.7072
418.4174
0.0 0.2 0.2
185.3522
193.2855
263.7506
295.163
321.7269
406.6272
0.0 0.2 0.3
223.54
233.0975
241.6168
253.9004
369.8682
380.047
0.0 0.2 0.4
195.6804
206.3389
256.605
285.1693
335.6762
401.2539
0.0 0.2 -0.5
158.0543
158.2367
278.696
283.2526
317.8017
416.3458
0.0 0.3 0.0
174.7481
177.1006
307.1657
326.6968
378.7363
400.9987
0.0 0.3 0.1
184.4206
188.0833
302.3946
341.8959
357.9681
412.0007
0.0 0.3 0.2
211.9485
218.6347
286.9495
316.4686
376.7027
418.0502
0.0 0.3 0.3
252.3761
256.2175
260.7401
269.173
404.3267
409.3687
0.0 0.3 0.4
222.603
227.7373
280.929
304.4104
385.1317
417.3081
0.0 0.3 -0.5
189.5846
195.2051
299.3931
344.1235
354.5131
414.8055
0.0 0.4 0.0
196.7252
221.355
320.2291
369.588
377.1405
404.7158
0.0 0.4 0.1
208.5636
217.4792
315.6802
353.218
385.6482
419.5213
0.0 0.4 0.2
224.5792
236.9013
301.317
313.9978
411.398
432.7939
0.0 0.4 0.3
256.9154
268.487
268.9908
276.8929
429.6817
432.3053
0.0 0.4 0.4
230.895
245.5432
295.7445
302.0922
417.4289
434.1188
0.0 0.4 -0.5
215.0387
217.161
312.8619
343.8323
392.3988
424.1289
0.0 -0.5 0.0
203.955
252.4703
326.7026
356.0207
387.2632
413.3212
0.0 -0.5 0.1
215.2126
241.2767
321.9328
340.1031
402.7999
424.3795
0.0 -0.5 0.2
233.8577
242.9575
305.7605
307.3419
426.7303
438.8211
0.0 -0.5 0.3
255.0036
264.7643
275.0226
282.9281
440.4883
441.9224
0.0 -0.5 0.4
236.5377
251.5624
294.9119
301.7615
431.6533
440.947
0.0 -0.5 -0.5
221.4661
237.3235
319.0277
332.231
409.5481
428.8657
0.1 0.1 0.0
88.8938
100.6416
184.2422
277.2649
302.8811
430.4775
0.1 0.1 0.1
121.2467
123.7134
216.9963
270.7181
294.5579
424.8227
0.1 0.1 0.2
162.8187
173.9759
249.6391
269.7036
288.547
405.939
0.1 0.1 0.3
204.5657
213.7356
221.918
232.0387
354.3437
368.2565
0.1 0.1 0.4
174.2401
186.6016
241.7401
260.6334
307.7721
398.0153
0.1 0.1 -0.5
131.7226
137.2941
234.3195
266.651
289.5089
421.2632
0.1 0.2 0.0
136.9565
157.2414
257.1601
306.004
340.2128
417.1314
0.1 0.2 0.1
153.3726
171.8904
276.335
304.2243
328.9081
415.6556
0.1 0.2 0.2
192.6818
204.0999
277.9283
298.4507
333.5628
407.3298
0.1 0.2 0.3
233.6145
234.9915
256.826
260.088
376.0141
384.9318
0.1 0.2 0.4
204.6191
213.3775
272.2908
288.1755
345.7775
403.0005
0.1 0.2 -0.5
162.3722
179.5484
282.547
306.3531
322.4039
414.4089
0.1 0.3 0.0
185.4046
201.1179
303.0291
345.1137
377.0357
396.9527
0.1 0.3 0.1
186.5608
214.1035
309.2504
347.5032
358.4773
409.9652
0.1 0.3 0.2
205.6341
241.7662
300.0827
316.2327
379.522
417.5204
0.1 0.3 0.3
243.3648
252.9737
281.8336
287.4645
405.1997
409.9229
0.1 0.3 0.4
214.5204
249.3905
292.897
307.5819
387.2372
417.0794
0.1 0.3 -0.5
189.2752
220.6911
309.501
341.8317
360.2223
413.2431
0.1 0.4 0.0
224.3084
227.1406
326.5025
372.3685
373.3079
402.1468
0.1 0.4 0.1
215.7093
239.3726
324.8709
351.0841
386.5375
416.2289
0.1 0.4 0.2
216.818
264.2198
300.2683
328.6526
409.3042
429.7809
0.1 0.4 0.3
243.9548
254.1731
298.1051
305.0744
426.8379
429.4068
0.1 0.4 0.4
221.6015
270.1525
291.6053
322.9055
415.0099
431.1485
0.1 0.4 -0.5
213.8492
245.2315
321.1757
344.4821
392.1603
420.896
0.2 0.2 0.0
168.6677
180.9224
294.6684
326.3772
367.961
404.7669
0.2 0.2 0.1
175.3961
195.0505
300.1912
333.4897
351.1135
411.1641
0.2 0.2 0.2
202.9353
225.4863
289.9615
313.1045
366.0546
413.8581
0.2 0.2 0.3
243.0905
250.1666
269.3786
274.9312
396.3887
402.2389
0.2 0.2 0.4
213.2738
234.3196
284.0342
302.2975
375.0688
412.3413
0.2 0.2 -0.5
180.5865
202.255
299.7107
336.8595
345.755
412.9387
0.2 0.3 0.0
206.3577
233.4365
311.208
369.3698
381.2421
385.7745
0.2 0.3 0.1
201.2018
243.7859
322.5302
348.5384
374.246
408.1748
0.2 0.3 0.2
208.6365
265.7005
308.1902
326.319
391.933
420.1724
0.2 0.3 0.3
240.7952
251.5223
303.618
309.2272
412.6096
416.2618
0.2 0.3 0.4
215.1285
269.2422
299.9877
322.9313
398.1187
420.7152
0.2 0.3 -0.5
200.7724
249.2509
325.2376
338.8593
377.2688
412.8068
0.2 0.4 0.0
242.0061
271.433
331.3535
362.9616
383.9057
397.9933
0.2 0.4 0.1
228.4853
280.0959
335.6639
346.6282
396.1371
407.5891
0.2 0.4 0.2
218.6956
284.4095
313.3396
352.334
408.1576
423.5411
0.2 0.4 0.3
237.3547
246.7223
332.5798
338.1061
422.3309
424.4959
0.2 0.4 0.4
220.6485
275.7033
316.9648
349.9657
412.4996
425.3175
0.2 0.4 -0.5
223.9055
284.1759
327.0753
350.2301
398.2631
412.9623
0.3 0.3 0.0
230.3996
231.8192
328.949
370.2205
374.7437
403.3061
0.3 0.3 0.1
219.1245
245.2451
326.8227
350.3047
388.736
416.357
0.3 0.3 0.2
217.5746
269.1872
299.6441
332.124
410.8994
430.0664
0.3 0.3 0.3
242.8015
252.8605
302.9579
309.814
427.7451
430.1586
0.3 0.3 0.4
221.7023
273.5612
292.1376
326.8842
416.4121
431.5425
0.3 0.3 -0.5
216.5803
251.0196
322.2141
344.9984
394.2543
420.9903
P	=	999.73	V	=	112.5751	E	=	-655.42058046
0.0 0.0 0.0
-0.0
0.0
0.0
275.9601
275.9601
476.1524
0.0 0.0 0.1
68.9843
68.9843
146.3723
267.5838
267.5838
467.6502
0.0 0.0 0.2
130.7815
130.7815
241.2198
241.2198
273.2439
440.1296
0.0 0.0 0.3
185.2193
185.2193
198.4758
198.4758
368.0111
387.3121
0.0 0.0 0.4
145.8824
145.8824
231.2335
231.2335
301.8128
428.9094
0.0 0.0 -0.5
86.2115
86.2115
182.6553
262.391
262.391
462.3811
0.0 0.1 0.0
67.806
75.1073
143.9378
284.9408
301.2207
470.8241
0.0 0.1 0.1
102.6489
112.5079
192.9337
277.2655
292.7317
463.2061
0.0 0.1 0.2
152.4283
165.2659
253.0678
266.83
290.4884
438.5465
0.0 0.1 0.3
201.6003
213.7703
214.1391
226.3938
373.7202
391.0426
0.0 0.1 0.4
165.8418
178.5658
243.8898
257.2419
315.1149
428.4666
0.0 0.1 -0.5
115.2856
127.1155
217.8599
272.5039
287.5453
458.4892
0.0 0.2 0.0
132.036
139.1631
265.287
305.5108
354.9652
455.547
0.0 0.2 0.1
155.8263
156.6486
289.8711
299.2456
344.2485
451.8985
0.0 0.2 0.2
194.8713
204.7316
279.355
313.6412
344.4449
438.274
0.0 0.2 0.3
236.2064
246.4991
256.391
269.5109
397.0868
408.3507
0.0 0.2 0.4
205.9991
218.6114
271.7437
302.9959
359.55
432.1759
0.0 0.2 -0.5
165.7075
167.6997
295.3498
302.7924
337.9627
449.4836
0.0 0.3 0.0
184.13
189.3086
326.2694
349.5554
404.2783
432.5723
0.0 0.3 0.1
197.0893
198.1518
321.0361
365.7508
382.9477
443.3841
0.0 0.3 0.2
226.1857
230.838
304.4013
337.6773
404.0281
449.3846
0.0 0.3 0.3
267.3051
273.1386
276.2951
286.9216
434.0958
439.6121
0.0 0.3 0.4
237.4241
240.6448
297.9732
324.7315
413.1569
448.4716
0.0 0.3 -0.5
202.539
205.6894
317.7877
367.454
380.0011
446.2375
0.0 0.4 0.0
208.0692
236.6435
340.7029
395.9443
405.9193
433.7675
0.0 0.4 0.1
220.641
233.4529
335.7065
378.5609
413.7837
450.4796
0.0 0.4 0.2
241.4592
250.9407
320.1377
335.6073
442.0739
465.099
0.0 0.4 0.3
274.9703
285.409
287.0601
293.877
462.0607
464.8523
0.0 0.4 0.4
247.9765
260.1929
314.1533
322.8044
448.6932
466.6064
0.0 0.4 -0.5
227.5233
233.4074
332.6413
368.222
421.1404
455.5352
0.0 -0.5 0.0
216.3709
270.0514
348.0278
382.3919
415.0827
444.6618
0.0 -0.5 0.1
228.394
258.8581
342.8045
364.8477
432.1048
456.7856
0.0 -0.5 0.2
251.4623
257.9545
326.9159
327.6204
458.7897
472.679
0.0 -0.5 0.3
273.5983
283.8739
292.1544
300.5997
474.4408
476.0807
0.0 -0.5 0.4
254.2479
267.0956
316.0043
320.8903
464.3535
475.0305
0.0 -0.5 -0.5
235.0444
254.8981
339.6392
356.2822
439.5408
461.6968
0.1 0.1 0.0
95.0504
105.5849
196.644
293.8023
321.4976
465.6095
0.1 0.1 0.1
126.8488
130.7912
231.7891
286.7645
312.5614
459.059
0.1 0.1 0.2
170.6503
183.6015
264.2081
285.9351
309.0345
437.6645
0.1 0.1 0.3
215.7974
225.7149
234.7596
245.5996
380.6775
395.9096
0.1 0.1 0.4
182.9279
196.9779
255.7999
276.2538
329.8331
428.8405
0.1 0.1 -0.5
137.6152
144.9923
250.3568
282.4419
307.1645
454.9907
0.1 0.2 0.0
146.3854
165.5492
274.0143
325.6538
361.9881
450.6328
0.1 0.2 0.1
162.904
180.7809
293.9717
324.4046
349.9371
448.6385
0.1 0.2 0.2
204.1097
215.0793
294.6068
317.3657
357.3187
438.7514
0.1 0.2 0.3
247.3309
248.6623
272.4975
276.2641
403.6747
413.5264
0.1 0.2 0.4
216.7657
225.0802
288.659
306.4039
370.5335
433.815
0.1 0.2 -0.5
172.1719
188.8217
299.9475
327.3813
343.0161
447.0887
0.1 0.3 0.0
198.0883
212.4185
322.0565
369.2845
402.4987
428.021
0.1 0.3 0.1
199.1834
226.278
328.4169
371.4316
384.0431
440.7297
0.1 0.3 0.2
219.3402
255.8699
318.853
336.9219
407.3717
448.4265
0.1 0.3 0.3
258.7973
268.6312
299.748
305.6452
435.1701
440.2462
0.1 0.3 0.4
228.6492
264.0574
311.4496
327.4495
415.7132
447.9363
0.1 0.3 -0.5
202.0537
233.2701
328.6465
364.9196
386.3741
444.0638
0.1 0.4 0.0
237.7022
242.6605
347.272
398.9852
401.5841
431.1257
0.1 0.4 0.1
230.4727
254.4735
345.5975
375.4931
414.9506
446.634
0.1 0.4 0.2
232.5489
280.7657
319.41
350.2108
439.987
461.4096
0.1 0.4 0.3
260.3826
270.7667
317.4431
324.8699
459.0349
461.6769
0.1 0.4 0.4
237.5314
286.9845
310.3793
344.0117
446.2441
463.0428
0.1 0.4 -0.5
228.873
260.6194
341.716
367.9126
421.0921
451.6493
0.2 0.2 0.0
180.2533
190.7529
313.3006
348.7063
392.4047
436.7785
0.2 0.2 0.1
186.897
205.8003
318.6537
356.7854
374.9529
442.8078
0.2 0.2 0.2
215.7866
238.3894
307.689
333.6612
392.559
444.9755
0.2 0.2 0.3
258.0476
265.2589
286.3531
292.3666
425.553
431.9543
0.2 0.2 0.4
226.6723
247.9175
301.4643
322.0437
402.3046
443.2008
0.2 0.2 -0.5
192.2675
213.4377
318.0481
359.6527
370.1312
444.4815
0.2 0.3 0.0
220.3565
247.1504
330.8676
395.7825
407.3691
415.4842
0.2 0.3 0.1
215.1743
258.1069
342.8716
372.3515
401.7295
437.8314
0.2 0.3 0.2
223.4461
281.3967
328.1215
347.0882
421.2442
450.6453
0.2 0.3 0.3
256.5278
267.4234
323.068
328.9912
443.4201
447.1813
0.2 0.3 0.4
230.1969
285.1577
319.4589
343.5262
427.9344
451.394
0.2 0.3 -0.5
214.8784
263.8931
345.7648
361.6007
405.1416
442.668
0.2 0.4 0.0
258.271
288.3682
352.7612
389.936
410.6043
427.4577
0.2 0.4 0.1
244.0989
297.4927
357.6537
369.3452
425.5546
436.6136
0.2 0.4 0.2
234.8315
300.6758
333.5636
375.5772
439.194
453.737
0.2 0.4 0.3
253.5304
262.6276
354.5066
360.4429
454.3016
456.3153
0.2 0.4 0.4
236.9779
291.5355
337.6098
373.1179
443.941
456.0063
0.2 0.4 -0.5
239.505
301.6913
347.9257
373.1191
428.1029
442.1336
0.3 0.3 0.0
244.3
247.6342
349.9266
398.1271
401.5267
432.5711
0.3 0.3 0.1
234.1386
260.7721
347.7822
374.4785
417.3129
446.7889
0.3 0.3 0.2
233.4228
286.0924
318.7026
353.9089
441.7576
461.6964
0.3 0.3 0.3
259.2304
269.4062
322.693
330.0017
460.0811
462.5432
0.3 0.3 0.4
237.7367
290.5693
310.9904
348.2892
447.8188
463.4634
0.3 0.3 -0.5
231.7932
266.8529
342.913
368.2601
423.3631
451.7413
P	=	1500.78	V	=	105.2656	E	=	-655.35910072
0.0 0.0 0.0
-0.0
0.0
0.0
303.4351
303.4351
538.1592
0.0 0.0 0.1
75.6943
75.6943
162.3223
294.2528
294.2528
527.1539
0.0 0.0 0.2
143.256
143.256
265.0687
265.0687
303.8773
493.497
0.0 0.0 0.3
203.0326
203.0326
217.6132
217.6132
410.5491
432.3617
0.0 0.0 0.4
159.6956
159.6956
254.0344
254.0344
335.761
480.3532
0.0 0.0 -0.5
94.4466
94.4466
202.4851
288.5635
288.5635
520.554
0.0 0.1 0.0
73.9487
82.3092
159.9123
313.4768
331.743
531.7884
0.0 0.1 0.1
112.5935
123.1855
214.5035
305.0129
322.3354
521.8871
0.0 0.1 0.2
167.0993
181.1749
278.149
293.4869
323.3732
491.6447
0.0 0.1 0.3
221.1194
234.5032
234.9933
248.4935
417.0334
436.6112
0.0 0.1 0.4
181.7146
195.7079
267.9969
282.8584
350.844
479.8178
0.0 0.1 -0.5
126.371
139.1795
242.1035
299.7729
316.6051
515.9574
0.0 0.2 0.0
144.1495
152.6562
295.0558
336.6249
392.3804
513.5455
0.0 0.2 0.1
170.7246
171.915
322.4045
329.6102
380.3889
508.4187
0.0 0.2 0.2
213.9015
224.8655
307.3469
345.8651
383.706
491.1345
0.0 0.2 0.3
259.4244
270.7609
282.0375
296.5497
443.2326
456.057
0.0 0.2 0.4
226.0638
240.1178
298.8934
334.014
400.6121
483.856
0.0 0.2 -0.5
181.8182
183.8365
325.2729
336.7223
373.4068
505.2146
0.0 0.3 0.0
202.3426
207.0747
360.3196
389.3989
449.1447
486.1498
0.0 0.3 0.1
216.1665
217.7872
354.3673
406.8121
426.2422
497.3197
0.0 0.3 0.2
248.9007
253.7778
335.545
374.129
450.6393
503.2322
0.0 0.3 0.3
294.1031
301.4487
304.0516
316.8564
484.889
491.2759
0.0 0.3 0.4
261.3878
264.5359
328.3504
359.5777
460.8986
501.9582
0.0 0.3 -0.5
222.3321
226.0378
350.7021
407.7082
423.8342
500.3061
0.0 0.4 0.0
229.2389
259.5929
377.1673
441.9075
454.3828
484.6749
0.0 0.4 0.1
243.0755
256.769
371.4507
422.1388
462.3135
504.6021
0.0 0.4 0.2
266.4952
276.4468
353.7002
373.2683
494.1421
521.4749
0.0 0.4 0.3
304.4605
314.6627
318.0986
324.0785
517.2696
520.6122
0.0 0.4 0.4
273.8535
286.612
346.9511
358.7891
501.6747
523.0835
0.0 0.4 -0.5
250.6057
256.9835
367.9678
410.4286
470.4632
510.4886
0.0 -0.5 0.0
238.9897
297.2139
385.9365
426.3098
464.0261
499.1582
0.0 -0.5 0.1
252.2159
285.8634
379.9712
406.6464
483.1793
513.1616
0.0 -0.5 0.2
278.7589
284.7338
361.8216
364.7627
513.7264
531.3261
0.0 -0.5 0.3
303.7951
315.3221
322.6462
332.0514
532.3526
534.4686
0.0 -0.5 0.4
281.9559
294.7672
351.7079
355.0038
520.1968
533.8687
0.0 -0.5 -0.5
259.4848
281.8791
376.3737
397.0925
491.5693
518.8047
0.1 0.1 0.0
103.6946
115.7792
218.5067
323.4662
354.5292
525.5581
0.1 0.1 0.1
139.1388
143.2467
257.6851
315.6806
344.5581
516.9699
0.1 0.1 0.2
187.1833
201.3752
290.4876
314.7604
344.1719
490.5939
0.1 0.1 0.3
236.7952
247.6545
257.8986
269.8127
424.8709
442.11
0.1 0.1 0.4
200.5734
216.0191
281.1872
304.0052
367.3888
480.2075
0.1 0.1 -0.5
150.9114
158.8008
278.253
310.9455
338.5628
511.8191
0.1 0.2 0.0
159.8394
181.7832
303.5724
360.5683
400.3471
507.6826
0.1 0.2 0.1
178.3548
198.5425
324.7479
360.1485
386.8764
504.5226
0.1 0.2 0.2
223.9937
236.2079
324.272
350.2845
398.2608
491.6342
0.1 0.2 0.3
271.5478
272.995
300.1088
304.3772
450.6655
461.9059
0.1 0.2 0.4
237.8934
247.1286
317.7382
338.0576
413.0327
485.6862
0.1 0.2 -0.5
188.601
207.3288
330.5928
364.2141
379.1747
502.3404
0.1 0.3 0.0
216.6523
233.592
355.6043
411.604
447.3273
480.7242
0.1 0.3 0.1
218.2507
248.8487
362.2743
412.9025
428.4557
494.1977
0.1 0.3 0.2
240.8888
281.4216
351.9946
373.2202
454.7338
502.2484
0.1 0.3 0.3
284.8294
295.564
331.0608
337.4031
486.2716
492.1477
0.1 0.3 0.4
251.2078
290.3607
344.1117
362.2787
464.0555
501.473
0.1 0.3 -0.5
221.5173
256.5099
362.5131
405.2111
431.3681
497.8036
0.1 0.4 0.0
261.9852
266.096
384.0922
445.4647
449.2154
481.8879
0.1 0.4 0.1
253.2256
280.4739
382.3679
418.4818
464.0284
500.2011
0.1 0.4 0.2
255.9708
309.5039
354.4289
388.4708
492.0022
517.3182
0.1 0.4 0.3
287.3696
298.9645
351.2455
359.4566
513.9137
517.0695
0.1 0.4 0.4
261.5668
316.2582
344.5465
381.2725
499.074
519.078
0.1 0.4 -0.5
251.5844
287.2808
378.3536
409.6519
470.7943
506.0565
0.2 0.2 0.0
197.039
209.6053
346.1121
387.9946
435.398
491.1629
0.2 0.2 0.1
204.7681
226.1803
351.394
397.0744
416.5516
497.0904
0.2 0.2 0.2
237.0063
262.1009
339.1242
369.2662
437.8442
498.3857
0.2 0.2 0.3
283.8041
291.6069
315.9169
322.5962
475.2774
482.6522
0.2 0.2 0.4
249.0234
272.5454
332.284
356.2056
448.7521
496.0938
0.2 0.2 -0.5
210.7775
234.5559
350.6472
399.001
412.4262
498.6702
0.2 0.3 0.0
241.1571
272.1038
365.3829
441.8084
453.5564
465.7819
0.2 0.3 0.1
235.8206
284.0994
378.415
414.4633
449.1924
490.3836
0.2 0.3 0.2
245.3189
309.5354
364.5299
383.4213
470.8444
504.8658
0.2 0.3 0.3
282.4947
294.6175
357.1842
363.5211
495.9119
500.2873
0.2 0.3 0.4
252.8493
313.6543
354.7532
379.4857
478.2753
505.5648
0.2 0.3 -0.5
235.6056
290.3983
381.6642
402.3359
452.9866
495.9076
0.2 0.4 0.0
283.207
318.2912
390.2244
435.3388
457.811
478.64
0.2 0.4 0.1
268.124
328.1457
398.0531
409.3449
476.5124
488.6395
0.2 0.4 0.2
258.2466
332.2184
370.8822
415.9626
491.7131
508.606
0.2 0.4 0.3
279.6345
289.9884
392.8424
399.3575
508.7514
511.1355
0.2 0.4 0.4
260.6847
322.5655
374.636
413.3404
496.9572
511.127
0.2 0.4 -0.5
263.2233
332.6257
387.9
413.0146
479.4427
495.0759
0.3 0.3 0.0
269.3471
271.6185
387.085
445.0949
448.3462
483.7766
0.3 0.3 0.1
257.3024
287.5234
384.979
417.2686
466.7276
500.4486
0.3 0.3 0.2
256.9643
315.4138
353.9624
392.5537
494.0919
517.7301
0.3 0.3 0.3
286.1281
297.5258
357.1811
365.2739
515.194
518.1483
0.3 0.3 0.4
261.8184
320.3177
345.4073
386.0684
500.9472
519.6464
0.3 0.3 -0.5
254.8511
294.2478
380.0137
409.8488
473.4222
506.2285
P	=	2000.23	V	=	99.7386	E	=	-655.2936999
0.0 0.0 0.0
-0.0
0.0
0.0
325.1899
325.1899
590.4773
0.0 0.0 0.1
79.2253
79.2253
175.0379
315.3424
315.3424
577.4041
0.0 0.0 0.2
151.339
151.339
283.8761
283.8761
328.7494
538.4584
0.0 0.0 0.3
216.427
216.427
232.2641
232.2641
445.8127
469.841
0.0 0.0 0.4
169.0619
169.0619
271.9883
271.9883
363.4136
523.6318
0.0 0.0 -0.5
98.9525
98.9525
218.2741
309.2657
309.2657
569.7043
0.0 0.1 0.0
78.4631
87.511
172.9475
336.1846
356.141
583.1958
0.0 0.1 0.1
119.2183
130.8307
231.8174
327.068
345.9847
571.4365
0.0 0.1 0.2
177.3078
192.7466
297.9783
314.712
350.0918
536.4128
0.0 0.1 0.3
235.922
250.4375
251.097
265.7262
452.9691
474.5619
0.0 0.1 0.4
193.0021
208.3435
287.0058
303.2256
379.9753
523.0547
0.0 0.1 -0.5
133.6979
147.7342
261.5162
321.4453
339.826
564.5159
0.0 0.2 0.0
153.245
162.6512
319.5259
361.6033
422.7392
562.3721
0.0 0.2 0.1
181.9324
183.2565
349.0908
353.9668
409.7382
556.0742
0.0 0.2 0.2
228.2134
240.4389
329.6027
371.9328
415.9824
535.6484
0.0 0.2 0.3
277.3416
289.6027
302.4398
318.1478
481.5865
495.8229
0.0 0.2 0.4
241.2125
256.8577
320.3956
359.0834
434.4
527.3165
0.0 0.2 -0.5
193.7869
196.0104
349.2595
364.4873
402.2257
552.2324
0.0 0.3 0.0
216.3012
220.7983
387.8269
422.447
486.0397
531.1505
0.0 0.3 0.1
231.1119
233.0798
381.2844
440.7384
462.1083
542.577
0.0 0.3 0.2
267.0761
271.802
360.4875
404.0271
489.4605
548.3203
0.0 0.3 0.3
315.1964
324.4064
325.9381
341.1746
527.2285
534.3635
0.0 0.3 0.4
280.6105
283.2796
352.5978
388.1388
500.6341
546.7078
0.0 0.3 -0.5
237.9186
241.9394
377.2653
440.8282
460.3194
545.6527
0.0 0.4 0.0
246.0281
277.8199
406.7405
480.2915
494.9684
527.1167
0.0 0.4 0.1
261.086
275.6668
400.4479
458.3569
502.9942
549.8546
0.0 0.4 0.2
287.1058
297.0237
380.8099
404.3864
537.7764
568.6367
0.0 0.4 0.3
328.6794
338.1443
343.5705
348.3069
563.4737
567.2575
0.0 0.4 0.4
295.1306
307.8713
373.4031
388.4924
546.0454
570.3252
0.0 0.4 -0.5
269.183
276.2202
396.623
445.4946
511.7898
556.4393
0.0 -0.5 0.0
257.3715
319.2366
416.7621
462.9458
505.0483
545.0872
0.0 -0.5 0.1
271.6885
308.0965
410.2174
441.5292
525.9684
560.6044
0.0 -0.5 0.2
301.4288
306.6554
390.2212
395.6435
559.7889
580.6157
0.0 -0.5 0.3
328.7514
341.2972
347.4792
357.6281
580.9613
583.4827
0.0 -0.5 0.4
304.9256
317.3691
381.3641
382.765
567.0203
583.2999
0.0 -0.5 -0.5
279.4787
304.2016
406.2826
431.159
535.1415
566.8327
0.1 0.1 0.0
110.095
123.2543
236.371
347.1849
381.0933
576.0799
0.1 0.1 0.1
147.8856
152.389
278.6614
338.7861
370.2862
565.8527
0.1 0.1 0.2
199.1513
214.7385
311.317
337.8592
372.8201
535.2233
0.1 0.1 0.3
252.8317
264.5835
276.0098
288.8945
461.5621
480.6096
0.1 0.1 0.4
213.4941
230.4545
301.2465
326.2131
398.0909
523.4623
0.1 0.1 -0.5
160.3098
168.9331
300.7633
333.7331
363.8188
559.8245
0.1 0.2 0.0
169.9948
194.111
327.5577
389.0919
431.4994
555.6851
0.1 0.2 0.1
190.0097
212.0876
349.5199
389.5783
416.9013
551.5895
0.1 0.2 0.2
239.3763
252.4146
347.9492
376.979
432.0539
536.1006
0.1 0.2 0.3
290.4564
291.9719
322.0585
326.8939
489.7517
502.2377
0.1 0.2 0.4
254.3194
264.0615
340.8925
363.702
448.1217
529.2483
0.1 0.2 -0.5
201.0269
221.4421
355.1817
394.5635
408.597
548.8892
0.1 0.3 0.0
231.0283
250.1291
382.7849
446.6483
484.2096
524.9648
0.1 0.3 0.1
233.1628
266.6894
389.6497
447.0254
465.4422
538.9569
0.1 0.3 0.2
258.0596
301.7261
378.6699
402.9086
494.2805
547.2172
0.1 0.3 0.3
305.6551
317.0266
356.2787
362.9527
528.9075
535.4456
0.1 0.3 0.4
269.2077
311.2243
370.4289
390.6753
504.3868
546.189
0.1 0.3 -0.5
236.813
274.9218
389.8653
438.3375
468.9085
542.7556
0.1 0.4 0.0
281.459
284.7142
413.9984
484.1685
489.0714
524.2419
0.1 0.4 0.1
271.5251
301.5421
412.2067
454.0839
505.1639
544.9045
0.1 0.4 0.2
275.1025
332.8677
382.8846
419.7908
535.6359
563.9777
0.1 0.4 0.3
309.3151
321.819
378.7502
387.5721
559.854
563.3971
0.1 0.4 0.4
281.191
340.0006
372.3585
411.7034
543.362
565.8591
0.1 0.4 -0.5
269.9528
308.9272
408.0875
444.1523
512.4629
551.4422
0.2 0.2 0.0
209.9249
224.113
372.6622
420.4465
470.6306
536.8583
0.2 0.2 0.1
218.5848
242.0787
377.8155
430.3111
450.8769
542.6653
0.2 0.2 0.2
253.739
280.7522
364.3177
398.3566
475.5138
543.1232
0.2 0.2 0.3
304.2277
312.4233
339.6224
346.9279
516.7087
524.9256
0.2 0.2 0.4
266.6849
291.9094
356.9413
384.0816
487.3658
540.3609
0.2 0.2 -0.5
225.1463
251.0719
376.9234
431.2535
447.5841
544.1459
0.2 0.3 0.0
257.4325
291.9498
393.4394
479.8875
491.8156
507.9385
0.2 0.3 0.1
252.1566
304.9258
407.2576
449.1305
488.9065
534.1609
0.2 0.3 0.2
262.9576
332.1029
394.2343
412.8608
512.4369
550.0058
0.2 0.3 0.3
303.4296
316.4657
384.7983
391.4072
539.7906
544.625
0.2 0.3 0.4
271.1317
336.4572
383.569
408.5648
520.4494
550.688
0.2 0.3 -0.5
252.0981
311.6629
410.7484
435.8554
493.0622
540.2195
0.2 0.4 0.0
303.0957
342.5983
420.8783
473.2472
496.8048
521.5027
0.2 0.4 0.1
287.4074
353.0876
430.91
442.3724
519.1534
531.8778
0.2 0.4 0.2
277.3764
357.5387
401.5135
448.8846
535.8764
554.1425
0.2 0.4 0.3
300.9079
312.155
424.1927
431.1353
554.3674
556.9672
0.2 0.4 0.4
280.096
347.4707
405.0276
446.1402
541.5134
556.9401
0.2 0.4 -0.5
282.3481
357.7821
420.588
445.6248
522.5105
538.972
0.3 0.3 0.0
289.5097
290.7181
417.2868
484.3742
487.3276
526.5569
0.3 0.3 0.1
275.9619
309.2489
415.1794
452.6942
508.1334
545.2394
0.3 0.3 0.2
276.2178
339.2858
382.6455
424.1639
538.002
564.4884
0.3 0.3 0.3
308.0276
320.3398
385.2872
393.9875
561.3449
564.6656
0.3 0.3 0.4
281.5098
344.464
373.4648
416.92
545.4982
566.5484
0.3 0.3 -0.5
273.5243
316.534
410.1458
444.1949
515.3854
551.6822
P	=	2499.45	V	=	95.3119	E	=	-655.22622604
0.0 0.0 0.0
-0.0
0.0
0.0
344.8897
344.8897
635.8807
0.0 0.0 0.1
83.4284
83.4284
185.1808
334.4808
334.4808
620.9179
0.0 0.0 0.2
159.7572
159.7572
301.0514
301.0514
349.7361
577.4661
0.0 0.0 0.3
229.1144
229.1144
245.9807
245.9807
476.4635
502.5093
0.0 0.0 0.4
178.5548
178.5548
288.4191
288.4191
387.0614
561.2268
0.0 0.0 -0.5
104.2002
104.2002
231.1123
328.0611
328.0611
612.2402
0.0 0.1 0.0
81.5632
92.4434
184.5527
356.6591
377.9842
627.7816
0.0 0.1 0.1
125.8166
136.9323
246.8805
346.9869
367.2073
614.3489
0.0 0.1 0.2
187.3441
203.3057
316.0322
333.8311
373.0108
575.2584
0.0 0.1 0.3
249.8327
265.2933
265.7682
281.3902
484.2053
507.6147
0.0 0.1 0.4
204.0011
219.9598
304.3661
321.5791
405.1046
560.6069
0.0 0.1 -0.5
141.0642
154.9968
278.2653
341.0313
360.6734
606.5551
0.0 0.2 0.0
159.8007
172.041
341.2878
383.9486
449.5327
604.6282
0.0 0.2 0.1
190.5599
193.8011
372.67
375.7652
435.677
597.363
0.0 0.2 0.2
241.5305
253.5627
349.7202
394.9266
444.1961
574.3375
0.0 0.2 0.3
293.9422
307.0012
320.2494
337.0938
514.9862
530.4643
0.0 0.2 0.4
255.3445
271.1865
339.9151
381.1626
463.904
565.1105
0.0 0.2 -0.5
204.9197
205.6645
370.7431
388.9442
427.7053
592.9931
0.0 0.3 0.0
229.2913
231.2425
412.2755
451.7521
518.4665
569.9322
0.0 0.3 0.1
242.9653
247.0658
405.1948
470.4758
493.5891
581.9213
0.0 0.3 0.2
282.2375
288.2172
382.8427
429.9959
523.4523
587.6728
0.0 0.3 0.3
334.4741
344.0662
345.9074
362.1142
564.1682
571.9627
0.0 0.3 0.4
296.8054
300.4082
374.4197
412.8919
535.3887
585.7668
0.0 0.3 -0.5
250.485
256.4391
400.8737
469.6711
492.4354
585.1468
0.0 0.4 0.0
261.5642
292.306
432.8855
514.2028
529.7373
564.4886
0.0 0.4 0.1
277.5195
291.0467
426.0746
489.5606
538.7802
589.469
0.0 0.4 0.2
304.3948
315.6264
404.9239
431.1975
575.944
609.9057
0.0 0.4 0.3
349.3421
359.3382
365.388
370.143
603.8363
608.0203
0.0 0.4 0.4
313.0891
327.111
397.0003
414.0428
584.8373
611.654
0.0 0.4 -0.5
286.0759
292.0207
421.9564
475.6915
548.1013
596.668
0.0 -0.5 0.0
274.3519
337.1973
443.9024
494.1423
541.239
585.5854
0.0 -0.5 0.1
289.4879
326.5016
436.866
471.3439
563.5259
602.2721
0.0 -0.5 0.2
320.5941
326.4241
415.3602
422.0988
600.0603
623.7945
0.0 -0.5 0.3
350.089
363.5481
369.689
380.4685
623.4785
626.371
0.0 -0.5 0.4
324.4316
337.7223
406.7586
407.3782
607.9596
626.5927
0.0 -0.5 -0.5
297.6933
322.7849
432.6455
460.2835
573.3408
608.9812
0.1 0.1 0.0
114.5696
130.2792
252.2844
368.4881
404.7182
619.8683
0.1 0.1 0.1
156.0273
159.6072
297.1528
359.5713
393.2156
608.1924
0.1 0.1 0.2
210.5609
226.3987
330.2115
358.4839
397.656
573.9621
0.1 0.1 0.3
267.8019
280.2195
292.2672
305.9603
493.4703
514.1316
0.1 0.1 0.4
225.7936
243.2377
319.5081
346.0313
424.7426
561.0354
0.1 0.1 -0.5
169.2753
177.1322
320.493
354.256
386.3339
601.4006
0.1 0.2 0.0
177.4151
205.4415
348.9415
414.4937
458.9735
597.1938
0.1 0.2 0.1
199.051
224.4206
371.4274
415.7778
443.3709
592.3778
0.1 0.2 0.2
252.3773
267.2069
369.1519
400.4631
461.6543
574.7743
0.1 0.2 0.3
307.5264
309.168
341.5797
346.66
523.8046
537.379
0.1 0.2 0.4
268.4432
279.5655
361.6847
386.2176
478.8088
567.1515
0.1 0.2 -0.5
210.9305
234.2933
376.9806
421.457
434.5263
589.2669
0.1 0.3 0.0
242.0737
265.172
406.9252
477.6754
516.673
563.054
0.1 0.3 0.1
245.1498
282.6343
413.8518
476.8164
498.0656
577.8825
0.1 0.3 0.2
272.5552
319.8329
402.2743
428.7911
528.9515
586.4644
0.1 0.3 0.3
323.8158
335.9472
378.5501
385.5723
566.1052
573.2198
0.1 0.3 0.4
284.5656
329.8799
393.6429
415.5155
539.6937
585.2123
0.1 0.3 -0.5
249.2953
291.3461
414.0388
467.1638
502.0224
581.921
0.1 0.4 0.0
299.1078
299.6082
440.3995
518.326
523.1799
561.5721
0.1 0.4 0.1
286.8329
320.0889
438.4348
484.8187
541.364
584.0539
0.1 0.4 0.2
291.3678
353.483
407.6929
447.1819
573.8355
604.7911
0.1 0.4 0.3
328.2494
341.6121
403.0167
412.3727
599.9644
603.8534
0.1 0.4 0.4
297.9618
360.9181
396.6115
438.3843
582.0989
606.7612
0.1 0.4 -0.5
285.3586
328.0328
434.1523
473.9946
549.1105
591.1837
0.2 0.2 0.0
219.6519
237.4422
396.2639
449.2543
501.6217
576.2711
0.2 0.2 0.1
229.6153
256.3514
401.2443
459.5177
481.09
582.2311
0.2 0.2 0.2
267.9182
297.4469
386.7958
423.7213
508.528
582.1304
0.2 0.2 0.3
322.3044
331.059
360.5504
368.3096
552.8443
561.7962
0.2 0.2 0.4
281.8517
309.2861
378.9726
408.3664
521.1592
578.9629
0.2 0.2 -0.5
236.8329
265.8658
400.2305
459.4098
478.6155
583.6983
0.2 0.3 0.0
270.2146
309.727
418.323
513.3771
525.6715
544.133
0.2 0.3 0.1
265.3939
323.4294
432.6545
479.2239
523.9873
572.3102
0.2 0.3 0.2
277.819
352.0646
420.0457
438.7863
548.9288
589.4204
0.2 0.3 0.3
321.4871
335.4214
409.173
416.0629
578.075
583.3026
0.2 0.3 0.4
286.6633
356.5981
408.6437
434.2066
557.3895
590.0755
0.2 0.3 -0.5
265.6188
330.5252
436.3229
464.9319
528.428
578.8893
0.2 0.4 0.0
319.2375
364.1543
447.9511
505.6008
531.13
559.3117
0.2 0.4 0.1
303.3641
375.1042
459.2437
471.3334
556.6537
569.7883
0.2 0.4 0.2
293.5659
379.4677
428.325
477.71
574.601
593.9186
0.2 0.4 0.3
319.1373
331.205
451.666
458.9832
594.1472
596.9252
0.2 0.4 0.4
296.5969
368.9406
431.7021
474.8579
580.5176
596.9303
0.2 0.4 -0.5
298.2734
379.9404
448.814
474.2039
560.4246
577.4014
0.3 0.3 0.0
306.0629
307.7291
443.9308
517.9613
521.7189
564.2688
0.3 0.3 0.1
291.5685
328.3889
441.6704
483.285
544.5593
584.4908
0.3 0.3 0.2
292.5876
360.3092
407.6093
451.8298
576.4423
605.3917
0.3 0.3 0.3
326.8996
340.0642
410.0556
419.2861
601.637
605.285
0.3 0.3 0.4
298.3333
365.6463
397.9475
443.9722
584.4635
607.5574
0.3 0.3 -0.5
289.1904
336.2032
436.4742
473.9506
552.2831
591.5006
P	=	2999.38	V	=	91.6321	E	=	-655.15761441
0.0 0.0 0.0
-0.0
-0.0
0.0
362.4544
362.4544
677.7205
0.0 0.0 0.1
88.4375
88.4375
198.0472
351.6016
351.6016
661.2043
0.0 0.0 0.2
168.4303
168.4303
316.4272
316.4272
372.2564
613.5597
0.0 0.0 0.3
240.8339
240.8339
258.4074
258.4074
505.6832
533.0848
0.0 0.0 0.4
187.9012
187.9012
303.1916
303.1916
411.2905
596.0705
0.0 0.0 -0.5
110.1615
110.1615
246.5584
344.9228
344.9228
651.7101
0.0 0.1 0.0
87.4168
97.2083
195.16
374.9062
397.4502
668.8964
0.0 0.1 0.1
132.6231
145.9421
262.1453
364.7804
386.1767
654.0834
0.0 0.1 0.2
197.2052
214.5873
332.1615
350.98
396.3558
611.2128
0.0 0.1 0.3
262.561
278.6844
279.4436
295.6995
513.7829
538.4699
0.0 0.1 0.4
214.496
231.6939
319.9334
338.1264
430.0294
595.4169
0.0 0.1 -0.5
148.5875
164.5646
295.5079
358.568
379.3623
645.5599
0.0 0.2 0.0
170.6304
180.9746
361.0587
403.8542
473.4196
643.6902
0.0 0.2 0.1
202.9846
203.8634
394.4592
395.1973
458.908
635.5823
0.0 0.2 0.2
253.9313
268.2056
367.6403
415.7643
470.661
610.0335
0.0 0.2 0.3
308.9178
322.5635
337.3339
354.8428
545.9267
562.3951
0.0 0.2 0.4
268.3147
286.2776
357.349
401.3366
491.4377
599.982
0.0 0.2 -0.5
215.4578
218.5973
389.9222
411.6048
450.6396
630.7438
0.0 0.3 0.0
241.4064
245.7838
434.0465
478.1485
547.4107
605.9636
0.0 0.3 0.1
258.067
259.9898
426.4859
497.3727
522.1385
618.1111
0.0 0.3 0.2
298.8151
303.0989
402.7293
453.9899
554.3402
623.5457
0.0 0.3 0.3
351.715
363.3778
363.6841
382.2422
597.6854
606.0519
0.0 0.3 0.4
313.8505
315.8091
393.8689
436.0138
566.9007
621.32
0.0 0.3 -0.5
265.8281
269.729
421.9162
495.9469
521.5545
621.3658
0.0 0.4 0.0
275.7824
309.4858
456.1314
544.5593
562.3347
597.7757
0.0 0.4 0.1
292.4383
308.4974
448.865
518.4654
570.98
625.2344
0.0 0.4 0.2
322.6248
332.2974
426.3598
456.3562
610.2562
647.1177
0.0 0.4 0.3
369.7638
378.2167
386.5843
389.5359
640.0985
644.6392
0.0 0.4 0.4
331.6383
344.258
418.0098
438.2561
619.6565
648.8777
0.0 0.4 -0.5
301.314
309.6002
444.5085
503.7882
580.7214
632.9708
0.0 -0.5 0.0
289.6949
356.2254
467.9802
523.8306
573.5893
621.4728
0.0 -0.5 0.1
305.5012
345.7748
460.527
499.4652
597.1908
639.5413
0.0 -0.5 0.2
340.2322
344.0715
437.6889
447.1372
636.1438
662.5213
0.0 -0.5 0.3
371.1283
385.1932
389.4434
400.7318
661.5233
664.7425
0.0 -0.5 0.4
344.2249
355.8113
429.2744
430.9784
644.5859
665.3903
0.0 -0.5 -0.5
314.0054
342.166
456.0818
487.7771
607.5451
646.7181
0.1 0.1 0.0
122.6263
137.0106
266.7973
387.4775
425.7682
660.2784
0.1 0.1 0.1
164.4805
169.9579
314.8266
378.1374
413.7094
647.3981
0.1 0.1 0.2
221.4913
239.1736
347.0885
377.0357
421.9806
609.8032
0.1 0.1 0.3
281.4149
294.3986
307.433
321.6832
523.459
545.309
0.1 0.1 0.4
237.3205
256.4102
335.8703
363.9683
450.4782
595.8382
0.1 0.1 -0.5
178.1511
188.2295
339.548
372.6507
406.5236
639.9635
0.1 0.2 0.0
189.2163
216.0772
368.2
437.3229
483.4511
635.6022
0.1 0.2 0.1
211.8229
236.0234
391.3143
439.5434
467.0836
630.1203
0.1 0.2 0.2
266.8321
280.8928
388.1929
421.8244
489.1167
610.395
0.1 0.2 0.3
323.3135
324.9665
359.6209
365.1452
555.1994
569.6632
0.1 0.2 0.4
283.26
293.765
380.3999
406.8916
507.1914
602.0499
0.1 0.2 -0.5
224.0383
246.3125
396.718
445.9803
457.8908
626.6245
0.1 0.3 0.0
257.05
279.0365
428.4897
505.5203
545.6752
598.4866
0.1 0.3 0.1
260.0303
297.4443
435.5739
503.7715
527.5546
613.6548
0.1 0.3 0.2
288.2296
336.3717
423.5568
452.6511
560.3767
622.2126
0.1 0.3 0.3
341.3486
353.6768
399.0677
406.265
599.8353
607.4547
0.1 0.3 0.4
300.5709
346.8099
414.797
438.4624
571.6535
620.7076
0.1 0.3 -0.5
264.2353
306.5051
435.7431
493.4913
531.9158
617.797
0.1 0.4 0.0
315.1332
316.9899
463.9241
548.8611
555.1995
594.8482
0.1 0.4 0.1
303.3738
337.5558
461.9227
513.2776
573.8926
619.3815
0.1 0.4 0.2
308.2931
372.2825
430.5492
472.196
608.1636
641.599
0.1 0.4 0.3
346.7641
360.5882
425.1107
434.8574
636.0281
640.2271
0.1 0.4 0.4
315.108
379.967
419.1658
462.6926
616.8739
643.6139
0.1 0.4 -0.5
301.9386
345.7579
457.61
501.6496
581.9919
627.0351
0.2 0.2 0.0
233.6163
249.8408
417.3518
475.1796
529.2845
612.8514
0.2 0.2 0.1
243.7626
269.8358
422.2393
485.8805
508.4302
618.7233
0.2 0.2 0.2
283.2348
312.9424
406.9391
447.0438
538.6254
617.7988
0.2 0.2 0.3
339.3854
348.2225
379.9907
388.2159
585.7517
595.3355
0.2 0.2 0.4
297.5275
325.2828
398.8109
430.8893
551.9078
614.2144
0.2 0.2 -0.5
251.1374
279.7531
421.1192
484.9598
506.7681
620.089
0.2 0.3 0.0
286.3379
325.9206
440.5655
543.2116
556.0572
577.9265
0.2 0.3 0.1
281.183
340.2456
455.5477
506.7424
555.4715
607.1829
0.2 0.3 0.2
293.8458
370.0918
443.9806
462.2174
581.8206
625.1887
0.2 0.3 0.3
339.2393
353.6067
431.3348
438.338
612.6726
618.255
0.2 0.3 0.4
302.9337
374.8614
432.0315
457.3313
590.6758
625.7741
0.2 0.3 -0.5
281.3453
347.5986
459.3808
491.7093
560.1689
614.1248
0.2 0.4 0.0
337.2769
383.5487
472.1416
536.0838
561.7679
593.0191
0.2 0.4 0.1
320.7824
394.9149
485.1206
497.9771
590.2019
603.9746
0.2 0.4 0.2
310.5887
399.7459
452.9542
503.6526
609.3109
629.8273
0.2 0.4 0.3
337.2803
349.829
476.4427
484.0282
629.9521
632.9038
0.2 0.4 0.4
313.7023
389.1652
455.9838
500.6914
615.5006
632.9993
0.2 0.4 -0.5
315.5303
399.8683
475.0657
500.0815
594.2813
612.0807
0.3 0.3 0.0
323.6899
324.2359
467.6738
549.5364
552.4544
597.8705
0.3 0.3 0.1
308.3463
346.2796
465.4406
511.6416
577.269
619.8557
0.3 0.3 0.2
309.5996
379.4574
430.7173
477.0019
610.9685
642.2564
0.3 0.3 0.3
345.4019
359.0423
432.5639
442.1857
637.8507
641.7926
0.3 0.3 0.4
315.5373
385.0093
420.7085
468.5434
619.4291
644.4851
0.3 0.3 -0.5
305.9691
354.36
460.2654
501.4888
585.3682
627.378
P	=	5000.31	V	=	81.181	E	=	-654.87938568
0.0 0.0 0.0
-0.0
0.0
0.0
419.5783
419.5783
812.8957
0.0 0.0 0.1
104.6531
104.6531
232.6697
407.1514
407.1514
790.8787
0.0 0.0 0.2
197.1929
197.1929
366.461
366.461
438.7815
729.5715
0.0 0.0 0.3
279.7868
279.7868
299.4477
299.4477
598.1981
630.5022
0.0 0.0 0.4
218.8924
218.8924
351.5089
351.5089
484.1715
708.2497
0.0 0.0 -0.5
129.4339
129.4339
288.5448
399.6625
399.6625
778.7443
0.0 0.1 0.0
101.1571
112.4844
229.7652
434.1951
460.5001
801.6231
0.0 0.1 0.1
154.49
169.3395
309.0943
422.4684
447.5728
782.0158
0.0 0.1 0.2
229.3991
249.2756
384.4937
406.5332
467.6495
726.9428
0.0 0.1 0.3
304.3488
322.4719
323.7598
342.0964
607.9823
637.1558
0.0 0.1 0.4
248.7631
268.4598
370.6202
391.8821
506.7506
707.6505
0.0 0.1 -0.5
172.7193
190.6812
347.4072
415.4421
439.9013
771.1711
0.0 0.2 0.0
197.0228
209.8202
425.7717
468.4363
550.6033
769.4538
0.0 0.2 0.1
235.0005
236.236
458.1211
465.0092
533.9749
758.6992
0.0 0.2 0.2
293.8939
310.7483
425.534
482.606
555.6457
725.4382
0.0 0.2 0.3
357.3587
372.8177
390.8178
410.8047
645.9298
665.626
0.0 0.2 0.4
310.0635
331.12
413.745
466.0104
579.7396
712.9356
0.0 0.2 -0.5
249.2603
252.7758
452.024
484.4003
524.8803
752.4946
0.0 0.3 0.0
281.0013
283.2791
504.6159
564.7372
641.5938
721.3487
0.0 0.3 0.1
298.9132
301.9993
495.3934
584.2514
615.207
735.0121
0.0 0.3 0.2
347.2115
351.2062
466.9333
530.181
655.189
740.2258
0.0 0.3 0.3
407.3998
421.0128
422.8735
444.6837
707.0679
717.2098
0.0 0.3 0.4
364.3075
365.4799
456.7079
509.2793
669.6567
737.127
0.0 0.3 -0.5
308.0987
312.7755
490.0151
580.31
616.6786
738.6048
0.0 0.4 0.0
322.9493
356.7304
531.4352
644.3001
665.7217
707.3186
0.0 0.4 0.1
341.5837
358.0948
522.6346
610.4577
676.5652
741.9669
0.0 0.4 0.2
376.763
386.7617
495.7639
535.6664
722.4661
768.7516
0.0 0.4 0.3
432.4216
439.6591
451.9553
452.5119
758.7339
764.4096
0.0 0.4 0.4
387.1337
400.1301
486.1427
514.4152
733.4438
770.5977
0.0 0.4 -0.5
351.3188
360.1738
517.5332
593.1936
687.5216
751.4042
0.0 -0.5 0.0
341.2138
411.515
545.9412
616.6186
680.2205
740.4192
0.0 -0.5 0.1
358.8168
402.8088
537.1374
587.7562
707.3075
762.3808
0.0 -0.5 0.2
399.4184
402.2809
510.2351
525.3974
753.7216
789.7792
0.0 -0.5 0.3
435.617
451.7587
454.2845
467.0509
786.0206
790.4265
0.0 -0.5 0.4
404.0561
415.3263
500.6084
506.5791
763.9386
792.804
0.0 -0.5 -0.5
368.0931
399.8619
532.031
574.2124
719.1157
770.8904
0.1 0.1 0.0
141.7836
158.6511
314.1808
449.1669
493.8049
790.6208
0.1 0.1 0.1
190.8528
196.872
370.9867
438.3632
479.9426
773.6531
0.1 0.1 0.2
256.8822
277.1644
401.6884
436.9231
498.107
725.335
0.1 0.1 0.3
325.7511
340.2946
355.994
372.0702
619.5048
645.4109
0.1 0.1 0.4
274.6429
296.5307
388.9417
421.9471
531.1767
708.2185
0.1 0.1 -0.5
206.4085
217.6299
399.1107
432.4188
471.8336
764.215
0.1 0.2 0.0
218.3592
250.4568
430.683
512.1304
562.4231
759.1621
0.1 0.2 0.1
244.9934
273.4024
454.9495
517.4209
543.5341
751.7258
0.1 0.2 0.2
308.7675
324.8888
449.2591
490.2593
577.8814
725.6966
0.1 0.2 0.3
373.4012
375.2444
416.9297
423.5185
656.9611
674.2791
0.1 0.2 0.4
327.241
339.297
440.4696
473.047
598.7643
715.2274
0.1 0.2 -0.5
258.8838
284.9206
459.8728
525.5898
533.5108
747.1634
0.1 0.3 0.0
296.1943
324.1619
498.4332
596.6058
640.189
711.9205
0.1 0.3 0.1
300.848
345.1125
505.4926
590.4027
624.281
729.2161
0.1 0.3 0.2
334.2
389.486
491.577
528.6117
663.1927
738.47
0.1 0.3 0.3
395.6691
409.2645
464.2947
472.1599
709.9744
719.126
0.1 0.3 0.4
348.1514
401.0621
482.1814
511.627
676.0609
736.3035
0.1 0.3 -0.5
305.889
355.1937
505.4785
577.9178
629.916
733.9156
0.1 0.4 0.0
365.4136
367.8172
540.1743
648.8155
656.8662
704.4197
0.1 0.4 0.1
351.9324
393.1999
537.5263
604.015
680.5265
734.6547
0.1 0.4 0.2
358.9493
432.8191
503.0449
552.2004
720.5351
761.7934
0.1 0.4 0.3
403.8647
419.4883
496.0564
506.9843
753.9915
759.1453
0.1 0.4 0.4
366.7316
441.1273
490.6206
540.6008
730.6066
764.0031
0.1 0.4 -0.5
350.7384
402.4889
532.9043
589.9256
689.7249
743.922
0.2 0.2 0.0
269.3011
290.1419
485.6978
560.1581
619.07
730.1734
0.2 0.2 0.1
282.0456
312.9512
489.921
570.9834
597.7389
736.4512
0.2 0.2 0.2
328.2028
362.3714
471.5984
521.3034
636.8037
733.6592
0.2 0.2 0.3
392.8929
402.5935
441.4996
451.0621
693.0237
704.5703
0.2 0.2 0.4
344.3209
376.1996
462.4496
502.5147
652.0583
728.9081
0.2 0.2 -0.5
290.5916
324.0268
488.3888
567.0244
598.8342
737.734
0.2 0.3 0.0
329.8825
378.5752
512.8067
639.6277
656.4552
685.8852
0.2 0.3 0.1
325.2969
394.7655
529.0424
594.8206
659.132
719.966
0.2 0.3 0.2
340.9284
428.178
519.7662
537.2693
689.7631
741.5354
0.2 0.3 0.3
393.7626
409.9203
502.337
509.66
725.7841
732.3767
0.2 0.3 0.4
351.2368
433.3667
506.292
531.3111
699.7366
742.0341
0.2 0.3 -0.5
325.857
402.8462
533.1689
577.3962
664.5804
728.2241
0.2 0.4 0.0
389.058
446.6909
550.892
632.9887
661.4292
704.0974
0.2 0.4 0.1
371.6764
459.1803
567.0419
584.0971
700.0389
715.5046
0.2 0.4 0.2
361.3131
463.9968
532.0162
586.6992
723.2965
746.6589
0.2 0.4 0.3
392.7827
407.1045
556.3076
564.6003
747.0339
750.4023
0.2 0.4 0.4
364.9414
452.6772
534.2734
583.491
730.2214
750.4358
0.2 0.4 -0.5
366.2464
464.3792
558.4736
583.235
705.4729
724.789
0.3 0.3 0.0
373.214
378.487
544.6373
649.7075
653.0447
708.5909
0.3 0.3 0.1
357.7191
403.482
541.8466
602.0466
684.424
735.3973
0.3 0.3 0.2
360.5594
441.1336
503.9135
557.6017
723.9617
762.6757
0.3 0.3 0.3
402.3978
417.8491
504.9327
515.7223
756.2998
761.1519
0.3 0.3 0.4
367.3532
447.0488
492.9023
547.3579
733.7652
765.1442
0.3 0.3 -0.5
355.4899
412.609
536.4476
589.4696
693.7103
744.4576

weight
   0.0000000   0.0000000   0.0000000   0.0020000   
   0.0000000   0.0000000   0.1000000   0.0040000   
   0.0000000   0.0000000   0.2000000   0.0040000   
   0.0000000   0.0000000   0.3000000   0.0040000   
   0.0000000   0.0000000   0.4000000   0.0040000   
   0.0000000   0.0000000  -0.5000000   0.0020000   
   0.0000000   0.1000000   0.0000000   0.0120000   
   0.0000000   0.1000000   0.1000000   0.0240000   
   0.0000000   0.1000000   0.2000000   0.0240000   
   0.0000000   0.1000000   0.3000000   0.0240000   
   0.0000000   0.1000000   0.4000000   0.0240000   
   0.0000000   0.1000000  -0.5000000   0.0120000   
   0.0000000   0.2000000   0.0000000   0.0120000   
   0.0000000   0.2000000   0.1000000   0.0240000   
   0.0000000   0.2000000   0.2000000   0.0240000   
   0.0000000   0.2000000   0.3000000   0.0240000   
   0.0000000   0.2000000   0.4000000   0.0240000   
   0.0000000   0.2000000  -0.5000000   0.0120000   
   0.0000000   0.3000000   0.0000000   0.0120000   
   0.0000000   0.3000000   0.1000000   0.0240000   
   0.0000000   0.3000000   0.2000000   0.0240000   
   0.0000000   0.3000000   0.3000000   0.0240000   
   0.0000000   0.3000000   0.4000000   0.0240000   
   0.0000000   0.3000000  -0.5000000   0.0120000   
   0.0000000   0.4000000   0.0000000   0.0120000   
   0.0000000   0.4000000   0.1000000   0.0240000   
   0.0000000   0.4000000   0.2000000   0.0240000   
   0.0000000   0.4000000   0.3000000   0.0240000   
   0.0000000   0.4000000   0.4000000   0.0240000   
   0.0000000   0.4000000  -0.5000000   0.0120000   
   0.0000000  -0.5000000   0.0000000   0.0060000   
   0.0000000  -0.5000000   0.1000000   0.0120000   
   0.0000000  -0.5000000   0.2000000   0.0120000   
   0.0000000  -0.5000000   0.3000000   0.0120000   
   0.0000000  -0.5000000   0.4000000   0.0120000   
   0.0000000  -0.5000000  -0.5000000   0.0060000   
   0.1000000   0.1000000   0.0000000   0.0120000   
   0.1000000   0.1000000   0.1000000   0.0240000   
   0.1000000   0.1000000   0.2000000   0.0240000   
   0.1000000   0.1000000   0.3000000   0.0240000   
   0.1000000   0.1000000   0.4000000   0.0240000   
   0.1000000   0.1000000  -0.5000000   0.0120000   
   0.1000000   0.2000000   0.0000000   0.0240000   
   0.1000000   0.2000000   0.1000000   0.0480000   
   0.1000000   0.2000000   0.2000000   0.0480000   
   0.1000000   0.2000000   0.3000000   0.0480000   
   0.1000000   0.2000000   0.4000000   0.0480000   
   0.1000000   0.2000000  -0.5000000   0.0240000   
   0.1000000   0.3000000   0.0000000   0.0240000   
   0.1000000   0.3000000   0.1000000   0.0480000   
   0.1000000   0.3000000   0.2000000   0.0480000   
   0.1000000   0.3000000   0.3000000   0.0480000   
   0.1000000   0.3000000   0.4000000   0.0480000   
   0.1000000   0.3000000  -0.5000000   0.0240000   
   0.1000000   0.4000000   0.0000000   0.0240000   
   0.1000000   0.4000000   0.1000000   0.0480000   
   0.1000000   0.4000000   0.2000000   0.0480000   
   0.1000000   0.4000000   0.3000000   0.0480000   
   0.1000000   0.4000000   0.4000000   0.0480000   
   0.1000000   0.4000000  -0.5000000   0.0240000   
   0.2000000   0.2000000   0.0000000   0.0120000   
   0.2000000   0.2000000   0.1000000   0.0240000   
   0.2000000   0.2000000   0.2000000   0.0240000   
   0.2000000   0.2000000   0.3000000   0.0240000   
   0.2000000   0.2000000   0.4000000   0.0240000   
   0.2000000   0.2000000  -0.5000000   0.0120000   
   0.2000000   0.3000000   0.0000000   0.0240000   
   0.2000000   0.3000000   0.1000000   0.0480000   
   0.2000000   0.3000000   0.2000000   0.0480000   
   0.2000000   0.3000000   0.3000000   0.0480000   
   0.2000000   0.3000000   0.4000000   0.0480000   
   0.2000000   0.3000000  -0.5000000   0.0240000   
   0.2000000   0.4000000   0.0000000   0.0120000   
   0.2000000   0.4000000   0.1000000   0.0240000   
   0.2000000   0.4000000   0.2000000   0.0240000   
   0.2000000   0.4000000   0.3000000   0.0240000   
   0.2000000   0.4000000   0.4000000   0.0240000   
   0.2000000   0.4000000  -0.5000000   0.0120000   
   0.3000000   0.3000000   0.0000000   0.0120000   
   0.3000000   0.3000000   0.1000000   0.0240000   
   0.3000000   0.3000000   0.2000000   0.0240000   
   0.3000000   0.3000000   0.3000000   0.0240000   
   0.3000000   0.3000000   0.4000000   0.0240000   
   0.3000000   0.3000000  -0.5000000   0.0120000   