Number of volumes (nv), q-vectors (nq), normal mode (np), formula units(nm)
10 84 6 1

P	=	-0.53	V	=	145.1906	E	=	-655.53030747
0.0 0.0 0.0
-0.0
0.0
0.0
170.7216
170.7216
284.1934
0.0 0.0 0.1
37.0183
37.0183
93.1561
164.8312
164.8312
281.3288
0.0 0.0 0.2
76.5975
76.5975
148.1355
148.1355
171.0052
268.1016
0.0 0.0 0.3
113.7827
113.7827
121.5197
121.5197
227.3078
237.5187
0.0 0.0 0.4
85.9164
85.9164
142.7125
142.7125
186.3543
262.5913
0.0 0.0 -0.5
46.2558
46.2558
113.4233
161.7893
161.7893
279.4347
0.0 0.1 0.0
44.7643
45.4261
86.8699
176.3904
186.5475
281.5958
0.0 0.1 0.1
59.963
72.6891
117.3311
171.115
181.0231
278.9115
0.0 0.1 0.2
91.113
102.775
155.7906
165.3087
179.4022
266.7537
0.0 0.1 0.3
124.0729
131.1491
133.9158
140.8043
229.6561
238.9123
0.0 0.1 0.4
99.1743
110.2489
150.757
160.2378
192.9054
261.7227
0.0 0.1 -0.5
66.5332
79.7696
131.805
168.3568
178.1619
277.1558
0.0 0.2 0.0
84.4443
86.561
160.2807
189.134
219.6484
274.2512
0.0 0.2 0.1
95.0072
102.5662
175.0766
185.107
213.7145
272.8392
0.0 0.2 0.2
119.1778
132.4706
172.5954
196.7334
208.7949
265.3617
0.0 0.2 0.3
145.9164
151.814
163.7387
170.8107
240.9818
247.1078
0.0 0.2 0.4
125.6118
139.9514
168.3556
191.2841
217.151
262.1174
0.0 0.2 -0.5
99.9853
109.2086
182.1733
182.928
210.6295
271.825
0.0 0.3 0.0
112.2307
123.0373
201.4842
211.7825
248.6758
263.3634
0.0 0.3 0.1
121.7283
127.6907
198.4263
222.4493
236.7858
268.7158
0.0 0.3 0.2
142.9851
145.4469
188.3101
212.4172
244.0794
271.062
0.0 0.3 0.3
165.8404
170.8367
174.3653
181.9171
261.6595
264.5965
0.0 0.3 0.4
148.5311
151.5903
184.7775
205.6035
248.8927
270.3876
0.0 0.3 -0.5
126.1647
130.5919
196.7173
226.7937
232.3073
269.9334
0.0 0.4 0.0
127.4489
152.5585
209.4728
240.8862
250.7016
264.2205
0.0 0.4 0.1
136.4547
149.1209
206.7573
235.4241
250.734
273.1297
0.0 0.4 0.2
152.5519
156.6454
197.8843
209.6265
266.6464
279.8198
0.0 0.4 0.3
173.0789
177.8645
179.762
182.3865
277.3536
278.7671
0.0 0.4 0.4
155.9627
161.8641
194.783
202.634
269.8506
280.2927
0.0 0.4 -0.5
140.6758
148.5758
205.2519
229.9807
254.5383
275.3425
0.0 -0.5 0.0
133.0678
172.9347
213.1303
239.2922
253.5956
268.2881
0.0 -0.5 0.1
141.7954
164.1017
210.3524
227.2389
262.9308
275.2577
0.0 -0.5 0.2
157.005
161.7673
201.8007
202.806
276.5096
282.9469
0.0 -0.5 0.3
169.7509
175.362
182.7094
187.0818
283.6643
284.3211
0.0 -0.5 0.4
158.1068
166.9577
196.1898
198.8722
278.8758
283.8837
0.0 -0.5 -0.5
145.9351
161.1943
208.8618
222.149
266.4523
277.5131
0.1 0.1 0.0
62.5978
64.1656
118.6075
181.9253
199.1255
279.0749
0.1 0.1 0.1
76.0353
85.9658
139.8984
177.1896
193.6807
276.6723
0.1 0.1 0.2
103.2608
116.8349
163.0207
178.1094
188.9746
265.8092
0.1 0.1 0.3
133.0519
139.126
147.9
154.1351
232.7745
240.994
0.1 0.1 0.4
110.4962
124.0495
158.3799
173.088
200.5374
261.3188
0.1 0.1 -0.5
81.6424
93.4943
150.4667
174.6935
190.8505
275.102
0.1 0.2 0.0
95.8541
101.8304
166.1644
200.2729
223.8289
271.946
0.1 0.2 0.1
106.7661
111.2208
179.6836
198.2716
217.3233
271.1634
0.1 0.2 0.2
131.2851
133.2247
182.7624
199.2947
216.0955
265.3873
0.1 0.2 0.3
154.1193
155.821
171.2959
174.7607
244.421
249.7875
0.1 0.2 0.4
137.4799
139.463
179.5064
193.6934
223.3926
262.6897
0.1 0.2 -0.5
111.8421
115.6814
184.4006
198.5471
213.9872
270.4635
0.1 0.3 0.0
128.834
131.0662
199.1729
223.1604
247.3814
261.3542
0.1 0.3 0.1
128.477
140.778
203.7916
227.1129
235.2844
267.4842
0.1 0.3 0.2
140.4776
159.5717
198.3532
211.2226
245.6712
270.5691
0.1 0.3 0.3
164.3967
169.309
187.1517
190.2296
262.1462
264.8811
0.1 0.3 0.4
145.5182
164.196
194.8454
205.5731
250.147
270.0703
0.1 0.3 -0.5
129.8807
144.7799
204.0227
227.6655
233.0335
268.8854
0.1 0.4 0.0
146.8637
156.8469
215.1387
241.6616
248.9236
261.9917
0.1 0.4 0.1
146.5112
159.3345
214.156
233.7811
250.4356
271.0548
0.1 0.4 0.2
147.1135
175.4755
199.7178
216.4203
265.2263
277.957
0.1 0.4 0.3
164.3497
170.2271
196.9486
200.8865
275.7119
277.0889
0.1 0.4 0.4
149.6837
179.2595
194.4849
212.8741
268.3503
278.4779
0.1 0.4 -0.5
145.6087
162.4507
212.4275
229.2984
253.7905
273.3186
0.2 0.2 0.0
117.1177
117.4471
192.8047
211.7865
241.7664
265.4118
0.2 0.2 0.1
120.5302
127.9877
197.3513
216.2523
232.207
268.2821
0.2 0.2 0.2
138.1752
148.7353
190.8631
209.8394
237.0122
268.5636
0.2 0.2 0.3
162.7884
166.1593
179.7379
183.6992
256.692
260.1387
0.2 0.2 0.4
143.9938
154.1707
187.5945
203.6106
242.2638
267.4443
0.2 0.2 -0.5
123.4591
132.3209
197.2289
219.813
228.0376
268.9432
0.2 0.3 0.0
143.1749
153.5199
205.5097
237.7514
249.9602
255.6415
0.2 0.3 0.1
138.7523
160.9444
213.3845
231.8954
240.9212
266.451
0.2 0.3 0.2
142.6128
176.1492
205.7936
215.1741
253.4968
272.0479
0.2 0.3 0.3
163.1573
169.2622
200.4844
203.6249
266.8034
268.8721
0.2 0.3 0.4
146.1933
178.8034
200.5384
213.0006
257.1581
272.1121
0.2 0.3 -0.5
138.1602
164.3199
214.993
226.5405
242.832
268.517
0.2 0.4 0.0
167.5495
179.1645
220.4528
243.8417
250.3049
256.1975
0.2 0.4 0.1
156.9242
185.5532
224.1657
230.2064
254.2753
266.2885
0.2 0.4 0.2
148.6015
190.4878
206.388
231.4146
264.084
274.464
0.2 0.4 0.3
159.921
165.2843
218.6326
221.7558
273.3293
274.5057
0.2 0.4 0.4
149.3719
185.2843
208.3081
229.8115
266.7823
275.2206
0.2 0.4 -0.5
153.6821
188.2658
218.773
231.6521
255.8827
268.9096
0.3 0.3 0.0
151.1149
160.0455
216.9457
243.2786
247.3284
262.4187
0.3 0.3 0.1
149.0384
163.1306
215.7919
233.0953
251.8677
271.0592
0.3 0.3 0.2
147.5645
178.8895
199.3213
218.3299
266.2783
278.1227
0.3 0.3 0.3
163.4907
169.289
200.0196
203.8725
276.3058
277.5853
0.3 0.3 0.4
149.7212
182.0042
194.372
215.1808
269.2911
278.71
0.3 0.3 -0.5
147.5971
166.2868
213.6674
229.0879
255.1631
273.3349
P	=	199.76	V	=	134.6404	E	=	-655.52365888
0.0 0.0 0.0
-0.0
-0.0
0.0
196.5753
196.5753
333.9784
0.0 0.0 0.1
46.1487
46.1487
102.7895
190.0698
190.0698
329.549
0.0 0.0 0.2
90.8336
90.8336
170.843
170.843
193.3165
312.4494
0.0 0.0 0.3
131.4462
131.4462
140.2421
140.2421
262.1366
274.9271
0.0 0.0 0.4
101.1362
101.1362
164.4141
164.4141
212.1704
305.5396
0.0 0.0 -0.5
57.1435
57.1435
126.1898
186.5668
186.5668
326.8625
0.0 0.1 0.0
46.9851
52.8514
101.9282
203.1269
215.3165
330.7529
0.0 0.1 0.1
71.2318
80.3421
135.0614
197.2625
209.0417
326.6115
0.0 0.1 0.2
106.8987
118.1961
179.6122
190.6968
205.0187
310.946
0.0 0.1 0.3
143.2403
151.312
154.0985
162.1409
265.561
277.0397
0.0 0.1 0.4
115.9249
127.0929
173.6608
184.6298
221.3151
304.6728
0.0 0.1 -0.5
79.1977
89.8086
151.0419
194.0751
205.6772
324.1263
0.0 0.2 0.0
92.2881
98.1701
188.2132
218.0744
254.9167
321.4492
0.0 0.2 0.1
110.6827
111.3733
204.822
213.4826
247.6785
319.1615
0.0 0.2 0.2
138.3214
148.7355
199.021
226.9264
243.0999
309.7783
0.0 0.2 0.3
168.3754
175.17
187.1057
195.7684
280.8327
288.2132
0.0 0.2 0.4
145.6755
158.2024
194.0308
220.2499
252.9317
305.8607
0.0 0.2 -0.5
116.5728
119.7223
210.9289
212.9084
243.8448
317.733
0.0 0.3 0.0
130.4355
133.7477
233.0192
249.0633
290.6559
307.3143
0.0 0.3 0.1
140.3343
141.0663
229.358
260.7468
275.385
314.3412
0.0 0.3 0.2
163.264
165.2101
217.5191
244.7266
286.1786
317.6797
0.0 0.3 0.3
191.4887
197.3452
198.7017
207.954
306.9908
310.4917
0.0 0.3 0.4
171.0509
171.676
213.3549
236.3193
291.9485
317.0033
0.0 0.3 -0.5
144.2964
146.1594
227.2974
264.6984
270.6437
315.9375
0.0 0.4 0.0
148.2468
168.711
243.1911
283.9475
290.7029
311.1807
0.0 0.4 0.1
157.9328
166.0887
239.7968
272.5376
295.2445
321.2245
0.0 0.4 0.2
172.2115
180.7399
229.2302
241.236
314.0029
329.575
0.0 0.4 0.3
197.445
205.5707
205.6607
211.0785
326.9941
328.7006
0.0 0.4 0.4
176.6712
186.9226
225.5356
232.7075
317.9426
330.2673
0.0 0.4 -0.5
162.6702
165.9894
237.9297
265.7702
299.7286
323.9471
0.0 -0.5 0.0
155.0119
193.3892
248.1682
275.8665
299.5369
317.9419
0.0 -0.5 0.1
164.1551
184.4629
244.6571
262.0749
310.3089
325.5464
0.0 -0.5 0.2
178.1149
186.6178
233.187
234.3623
326.7148
334.7059
0.0 -0.5 0.3
193.9848
200.7621
211.546
216.8751
335.6899
336.5188
0.0 -0.5 0.4
179.7757
192.8223
225.2323
230.8327
329.7089
335.9031
0.0 -0.5 -0.5
168.7318
181.5262
242.7881
255.976
314.552
328.201
0.1 0.1 0.0
66.0767
74.5725
139.2057
209.6153
230.2874
327.5871
0.1 0.1 0.1
89.137
93.5757
162.8529
204.3213
223.9381
323.8731
0.1 0.1 0.2
120.4467
132.5819
187.9073
205.4864
217.8889
309.9526
0.1 0.1 0.3
153.5291
160.3803
169.8212
177.1918
269.9201
280.0035
0.1 0.1 0.4
128.623
141.5451
182.446
199.4218
231.618
304.398
0.1 0.1 -0.5
95.9395
103.2143
174.5933
201.4412
220.5422
321.6556
0.1 0.2 0.0
102.7179
117.9997
194.3434
232.2991
260.0592
318.4621
0.1 0.2 0.1
116.2568
128.9325
208.5595
230.7666
252.0046
317.0778
0.1 0.2 0.2
147.8514
153.5721
210.5168
229.8911
252.3055
309.985
0.1 0.2 0.3
177.3536
178.6722
196.7512
200.522
285.3509
291.7717
0.1 0.2 0.4
156.3778
160.1682
206.7399
222.9929
260.8535
306.7818
0.1 0.2 -0.5
122.8241
134.1441
213.103
231.8431
247.8097
316.097
0.1 0.3 0.0
140.6542
151.8578
230.9553
262.2111
289.3322
304.5957
0.1 0.3 0.1
141.9904
162.2666
235.3569
266.139
274.2622
312.8295
0.1 0.3 0.2
157.8655
183.8703
228.9375
243.5232
288.4467
317.1965
0.1 0.3 0.3
187.4481
193.7344
215.7987
219.4367
307.792
311.0265
0.1 0.3 0.4
164.2993
189.2325
224.6608
236.7641
293.7579
316.7581
0.1 0.3 -0.5
144.0853
166.9504
235.5236
264.2171
273.5747
314.6921
0.1 0.4 0.0
170.4631
174.042
249.5773
285.2677
288.2133
308.6729
0.1 0.4 0.1
164.8242
182.7875
248.1333
270.5586
295.3081
318.6836
0.1 0.4 0.2
165.9841
202.2653
230.1367
250.6426
312.4806
327.3036
0.1 0.4 0.3
187.1462
194.2931
228.0975
232.7931
325.0561
326.7005
0.1 0.4 0.4
169.3457
206.4929
223.9475
246.5718
316.2714
328.0652
0.1 0.4 -0.5
163.5476
186.9469
245.8958
265.1355
299.2162
321.4616
0.2 0.2 0.0
127.333
135.8201
223.9519
247.8879
282.1293
309.9565
0.2 0.2 0.1
133.1365
147.0831
227.879
253.5951
269.9502
313.6327
0.2 0.2 0.2
155.6762
170.999
220.2121
241.8755
277.773
314.4304
0.2 0.2 0.3
186.4621
190.7103
206.603
210.9769
300.8657
304.959
0.2 0.2 0.4
163.1138
177.2978
216.3392
234.2292
283.998
313.2194
0.2 0.2 -0.5
137.0159
152.2023
227.5733
257.2955
265.0326
314.5151
0.2 0.3 0.0
157.7467
177.6749
238.4313
280.277
292.985
296.9677
0.2 0.3 0.1
153.856
185.926
246.6162
269.0721
284.0913
311.8706
0.2 0.3 0.2
160.1626
202.9443
237.3176
248.8474
298.3506
319.3877
0.2 0.3 0.3
185.4579
192.9234
232.0852
235.7833
313.8531
316.2724
0.2 0.3 0.4
164.8144
205.6379
231.2248
246.409
302.6512
319.6546
0.2 0.3 -0.5
153.5971
189.795
248.3931
262.1994
286.3625
314.5812
0.2 0.4 0.0
187.2066
207.8467
256.1485
281.3147
295.2715
302.4175
0.2 0.4 0.1
175.8093
214.8022
258.9423
266.8205
300.869
312.6117
0.2 0.4 0.2
167.3336
217.8672
239.7435
269.0014
311.5946
322.951
0.2 0.4 0.3
181.5045
187.983
254.2658
257.992
322.2444
323.5969
0.2 0.4 0.4
168.5547
211.4083
242.2084
267.233
314.7103
324.0411
0.2 0.4 -0.5
172.2561
217.7577
252.3903
268.661
302.6764
315.8613
0.3 0.3 0.0
175.399
177.931
251.7488
286.0948
287.2612
309.406
0.3 0.3 0.1
167.6261
187.4725
250.0173
269.6998
297.1123
318.8592
0.3 0.3 0.2
166.4885
206.2129
229.6058
253.1382
313.8362
327.6183
0.3 0.3 0.3
186.0822
193.1159
231.8383
236.4448
325.8659
327.3939
0.3 0.3 0.4
169.3534
209.3821
224.0724
249.5058
317.4916
328.4557
0.3 0.3 -0.5
165.8013
191.5696
247.2128
264.9962
300.9492
321.6296
P	=	500.66	V	=	124.3093	E	=	-655.49981416
0.0 0.0 0.0
0.0
0.0
0.0
228.8654
228.8654
395.4818
0.0 0.0 0.1
60.0921
60.0921
119.1821
221.6682
221.6682
389.4057
0.0 0.0 0.2
111.83
111.83
199.64
199.64
225.0841
367.5993
0.0 0.0 0.3
155.3788
155.3788
165.1367
165.1367
306.5829
322.1541
0.0 0.0 0.4
123.1661
123.1661
192.1051
192.1051
247.7208
358.9195
0.0 0.0 -0.5
73.7315
73.7315
146.9576
217.6236
217.6236
385.7756
0.0 0.1 0.0
54.1644
62.7565
119.7448
236.2954
250.5044
391.4834
0.0 0.1 0.1
86.983
93.9521
158.9944
229.7589
243.4277
385.8442
0.0 0.1 0.2
128.8261
140.1139
209.5548
222.2139
239.6637
365.9049
0.0 0.1 0.3
168.5315
177.5863
180.4099
189.575
310.9159
324.8617
0.0 0.1 0.4
138.9639
150.4671
202.5963
215.0478
259.0533
358.0275
0.0 0.1 -0.5
97.0047
106.0722
177.6963
226.0688
239.4916
382.5008
0.0 0.2 0.0
106.247
116.3474
221.2624
253.5273
296.8336
379.9526
0.0 0.2 0.1
128.2941
131.2043
240.8179
248.2908
288.3546
376.764
0.0 0.2 0.2
163.0088
172.3775
231.7141
263.8033
285.3493
364.7182
0.0 0.2 0.3
196.8105
204.6092
217.2065
227.4666
329.5563
338.5218
0.0 0.2 0.4
171.4689
183.7156
225.8928
255.845
296.9722
359.7699
0.0 0.2 -0.5
138.2269
138.3022
245.304
250.4069
283.7644
374.8148
0.0 0.3 0.0
153.8775
154.2575
271.3257
293.0596
339.9435
362.3976
0.0 0.3 0.1
161.6946
165.953
267.0268
306.058
322.3419
370.3117
0.0 0.3 0.2
188.8961
193.0507
253.2746
285.2468
336.2269
374.0403
0.0 0.3 0.3
223.1244
229.9978
230.7831
241.8989
360.9077
365.2112
0.0 0.3 0.4
198.3041
200.5502
248.3636
275.131
343.1251
373.1448
0.0 0.3 -0.5
166.4986
171.7277
264.5692
309.3704
317.8331
372.1811
0.0 0.4 0.0
175.0475
194.3296
284.0528
334.4748
341.6389
366.3535
0.0 0.4 0.1
185.5665
191.8392
280.0363
319.4208
347.7728
378.526
0.0 0.4 0.2
200.0035
210.909
267.4581
282.2604
369.7366
388.7928
0.0 0.4 0.3
230.3354
239.5162
240.1554
245.9772
385.5806
387.737
0.0 0.4 0.4
205.5718
218.0524
262.9719
271.9985
374.569
389.669
0.0 0.4 -0.5
190.8719
191.9672
277.771
311.1886
353.0332
381.9133
0.0 -0.5 0.0
182.914
223.3631
290.6565
322.9288
353.0982
376.586
0.0 -0.5 0.1
193.0393
213.7979
286.5608
307.0053
365.6487
385.3056
0.0 -0.5 0.2
207.8167
217.9972
273.4139
274.0696
385.4842
396.2469
0.0 -0.5 0.3
227.3324
235.5071
246.4948
252.902
397.0714
398.2385
0.0 -0.5 0.4
210.1275
225.1117
263.9722
269.657
389.3257
397.7103
0.0 -0.5 -0.5
198.209
210.6555
284.2839
299.7775
370.771
388.4957
0.1 0.1 0.0
76.1276
88.3405
163.6095
243.7491
267.9102
387.5597
0.1 0.1 0.1
106.5052
108.5442
191.7515
237.8231
260.6302
382.5199
0.1 0.1 0.2
143.4413
155.103
218.9636
239.1118
255.3547
364.8119
0.1 0.1 0.3
180.0549
187.7167
197.9866
206.4679
316.3243
328.558
0.1 0.1 0.4
152.7432
165.7511
212.6045
231.9119
271.5902
357.8343
0.1 0.1 -0.5
115.1902
120.1428
205.5936
234.5063
256.6123
379.5425
0.1 0.2 0.0
118.1543
138.9248
227.842
271.1136
302.9521
376.2397
0.1 0.2 0.1
133.9049
151.6622
243.5073
270.2398
293.4659
374.196
0.1 0.2 0.2
171.2777
179.9225
244.699
267.3767
296.3843
364.9996
0.1 0.2 0.3
206.6575
207.8778
228.8995
233.1277
335.0388
342.8401
0.1 0.2 0.4
181.5671
187.506
240.3607
259.1171
306.467
360.9391
0.1 0.2 -0.5
141.8107
157.8135
248.1281
272.2598
288.4167
372.8228
0.1 0.3 0.0
161.6202
178.3456
268.937
308.6732
338.5266
358.9709
0.1 0.3 0.1
163.63
189.6877
273.5219
312.1744
321.9619
368.4287
0.1 0.3 0.2
182.6836
214.0491
266.3785
283.8877
339.2668
373.5202
0.1 0.3 0.3
217.6356
225.1356
251.3857
255.6217
362.0265
365.9845
0.1 0.3 0.4
190.4773
220.2819
261.4465
275.7326
345.551
372.9364
0.1 0.3 -0.5
166.256
195.0153
273.689
308.46
322.3044
370.6619
0.1 0.4 0.0
200.012
200.152
290.9087
336.3713
338.4126
363.5393
0.1 0.4 0.1
190.5801
213.258
289.2945
316.8594
348.3341
375.4441
0.1 0.4 0.2
192.5638
235.4192
268.8302
292.8815
368.1408
386.035
0.1 0.4 0.3
217.8748
226.3988
266.0806
271.666
383.302
385.3573
0.1 0.4 0.4
196.7755
240.2341
261.6453
287.9053
372.733
387.0044
0.1 0.4 -0.5
189.1452
218.1385
286.7149
310.2321
352.8519
378.8884
0.2 0.2 0.0
146.3991
159.9665
261.1226
291.1353
329.5574
365.6686
0.2 0.2 0.1
153.531
172.3168
264.928
298.0146
315.4396
369.6877
0.2 0.2 0.2
180.2848
199.3503
256.1434
281.6882
326.4396
370.2258
0.2 0.2 0.3
216.691
221.7903
240.4565
245.5403
353.6135
358.6182
0.2 0.2 0.4
189.2624
206.6702
251.6327
272.5206
333.8177
368.6513
0.2 0.2 -0.5
158.2532
178.1697
264.4904
301.5661
310.2951
370.6507
0.2 0.3 0.0
181.073
207.8036
277.4919
330.7664
343.2823
349.3745
0.2 0.3 0.1
177.0844
216.7731
286.4563
314.85
335.465
366.9827
0.2 0.3 0.2
185.2634
235.721
277.2456
289.5264
351.4814
376.204
0.2 0.3 0.3
215.3403
224.2264
270.5055
274.7619
369.5617
372.5036
0.2 0.3 0.4
190.9953
238.7478
270.0671
286.7275
356.5096
376.541
0.2 0.3 -0.5
176.9868
221.1285
288.5413
306.4528
338.0841
370.3564
0.2 0.4 0.0
214.8774
242.6582
298.1918
329.5267
347.4603
357.2556
0.2 0.4 0.1
202.4426
250.2071
302.6453
310.8354
355.9417
367.8088
0.2 0.4 0.2
193.8128
253.1859
280.6323
313.7468
367.7252
380.6099
0.2 0.4 0.3
211.1874
218.9617
296.8606
301.2711
380.0276
381.6471
0.2 0.4 0.4
195.5589
245.8412
283.2069
311.7994
371.3215
382.0272
0.2 0.4 -0.5
198.5335
253.4494
295.206
312.7947
357.997
371.8391
0.3 0.3 0.0
204.6127
205.6334
293.4449
335.7228
338.7419
364.6661
0.3 0.3 0.1
193.746
218.7042
291.5459
315.8041
350.5066
375.7604
0.3 0.3 0.2
193.162
239.957
268.3811
295.8145
369.8301
386.4892
0.3 0.3 0.3
216.6819
225.0813
270.4992
275.9909
384.3583
386.2726
0.3 0.3 0.4
196.7981
243.4947
261.9926
291.3856
374.2642
387.5536
0.3 0.3 -0.5
191.6999
223.5002
288.3349
310.0296
354.9587
379.1778
P	=	750.24	V	=	118.1669	E	=	-655.4739286
0.0 0.0 0.0
-0.0
0.0
0.0
247.3663
247.3663
436.7882
0.0 0.0 0.1
64.1748
64.1748
132.1116
239.5905
239.5905
429.7234
0.0 0.0 0.2
119.8295
119.8295
215.6613
215.6613
248.0268
404.6863
0.0 0.0 0.3
167.2132
167.2132
177.9867
177.9867
336.7591
354.0193
0.0 0.0 0.4
132.2416
132.2416
207.3571
207.3571
272.8869
394.7641
0.0 0.0 -0.5
78.939
78.939
162.9792
235.1591
235.1591
425.4672
0.0 0.1 0.0
60.3679
67.3329
130.5565
255.5917
271.2676
432.2377
0.0 0.1 0.1
93.1945
102.5827
174.7067
248.4729
263.5672
425.6853
0.0 0.1 0.2
138.3396
151.2825
226.4813
240.3934
263.7285
402.7922
0.0 0.1 0.3
181.6259
191.6185
194.6683
204.7412
341.5177
356.9983
0.0 0.1 0.4
149.4757
162.4625
218.8192
232.4721
285.1028
393.7845
0.0 0.1 -0.5
104.0663
115.4211
195.7764
244.41
259.2265
421.7666
0.0 0.2 0.0
117.8246
125.0198
241.4376
274.7052
322.5637
419.0977
0.0 0.2 0.1
140.945
141.0899
263.4219
268.8931
313.2778
415.3134
0.0 0.2 0.2
175.5173
187.6088
250.7437
286.2279
312.981
401.2795
0.0 0.2 0.3
212.5734
221.193
235.4385
246.6325
361.7133
371.7615
0.0 0.2 0.4
184.8817
199.7527
244.3328
277.4288
325.9138
395.5583
0.0 0.2 -0.5
148.6113
151.7551
265.5648
274.2381
308.2009
412.9862
0.0 0.3 0.0
166.1257
169.5926
294.5643
320.1638
370.7552
399.0546
0.0 0.3 0.1
177.6402
178.6984
289.7162
334.5046
352.1513
407.1759
0.0 0.3 0.2
206.3761
208.2603
274.514
310.8961
368.4836
410.8642
0.0 0.3 0.3
241.3645
248.9965
251.3602
263.5384
395.8088
400.6785
0.0 0.3 0.4
216.5254
216.5935
269.07
299.691
376.1719
409.7396
0.0 0.3 -0.5
182.7243
185.0236
286.9428
337.4634
347.9919
409.1557
0.0 0.4 0.0
188.9991
213.047
308.9344
365.8901
375.3413
401.0069
0.0 0.4 0.1
200.3488
210.3064
304.3871
349.8188
381.0333
415.2942
0.0 0.4 0.2
219.0327
227.928
290.3183
308.7633
405.4718
426.9703
0.0 0.4 0.3
251.8528
259.3459
262.6555
266.5443
423.2128
425.6798
0.0 0.4 0.4
225.1016
235.8313
285.2817
297.3726
410.9167
427.9415
0.0 0.4 -0.5
206.161
210.431
301.808
340.5866
386.9346
419.2148
0.0 -0.5 0.0
197.9109
244.1386
316.5112
354.0385
386.6146
413.4171
0.0 -0.5 0.1
208.8919
234.0684
311.8807
336.4304
400.6718
423.3014
0.0 -0.5 0.2
227.9913
235.941
297.7809
299.6183
423.048
435.6646
0.0 -0.5 0.3
249.2762
258.2649
267.0522
274.189
436.3645
437.7585
0.0 -0.5 0.4
230.5823
243.7524
289.1965
292.7735
427.4696
437.3084
0.0 -0.5 -0.5
214.5554
230.7515
309.2758
328.4004
406.4821
426.9521
0.1 0.1 0.0
84.6935
94.889
178.3897
263.8819
290.5052
427.7693
0.1 0.1 0.1
114.5969
118.7791
210.033
257.402
282.5441
421.9071
0.1 0.1 0.2
154.2635
168.0612
236.7822
258.9452
280.6004
401.5465
0.1 0.1 0.3
194.2397
202.684
214.0327
223.304
347.4058
361.0196
0.1 0.1 0.4
164.5066
179.4765
229.7881
250.9749
298.5778
393.5551
0.1 0.1 -0.5
123.7934
131.3379
225.6458
253.7712
278.0945
418.4129
0.1 0.2 0.0
130.8211
149.6298
247.7682
294.971
329.348
414.8612
0.1 0.2 0.1
147.1305
163.3108
264.6798
294.7816
318.9536
412.3516
0.1 0.2 0.2
186.2781
194.0852
265.0837
290.3142
325.0282
401.503
0.1 0.2 0.3
223.3812
224.8429
248.2804
252.9911
367.6773
376.4394
0.1 0.2 0.4
197.2215
202.5115
260.3546
281.1756
336.2555
396.7794
0.1 0.2 -0.5
155.4626
170.0375
269.3007
297.7005
313.3573
410.6756
0.1 0.3 0.0
177.8942
192.4863
291.7728
337.5502
369.2863
395.1335
0.1 0.3 0.1
179.3372
204.9061
296.7406
340.9905
352.3202
404.9922
0.1 0.3 0.2
199.1024
231.4736
289.165
309.3748
371.9611
410.2943
0.1 0.3 0.3
236.2814
244.2121
273.2716
277.8829
397.1104
401.5875
0.1 0.3 0.4
207.4558
238.3789
283.9044
300.2157
378.9457
409.5351
0.1 0.3 -0.5
181.9876
210.7558
296.9249
336.3998
353.2722
407.4097
0.1 0.4 0.0
216.3529
219.2152
316.1006
368.2009
371.6382
398.053
0.1 0.4 0.1
208.0385
231.3503
314.4878
346.8191
381.9199
411.8802
0.1 0.4 0.2
210.1931
255.2032
293.0139
319.4634
403.7967
423.9243
0.1 0.4 0.3
237.4167
246.6564
289.4196
295.6117
420.7236
423.0725
0.1 0.4 0.4
214.7696
260.5169
285.2762
313.7182
408.9495
425.0056
0.1 0.4 -0.5
206.5174
236.6026
311.7539
339.2954
386.9449
415.8605
0.2 0.2 0.0
161.4918
172.4129
283.4088
317.9331
359.1185
402.7897
0.2 0.2 0.1
168.3636
185.982
287.3192
325.854
344.0702
406.8119
0.2 0.2 0.2
196.2703
215.5506
277.7188
306.6658
357.8286
406.8427
0.2 0.2 0.3
234.8067
240.2217
261.2481
266.9986
387.8618
393.5158
0.2 0.2 0.4
205.859
223.6919
272.7982
296.5133
366.0372
404.9331
0.2 0.2 -0.5
173.2623
192.4262
286.7798
329.22
339.127
407.7519
0.2 0.3 0.0
198.7457
224.7498
301.0151
362.3134
374.8013
384.1543
0.2 0.3 0.1
193.905
234.4303
310.9611
344.0162
367.9103
402.9163
0.2 0.3 0.2
202.0723
255.0376
302.4974
314.7896
385.5502
413.1382
0.2 0.3 0.3
234.1978
243.7881
294.1575
298.7484
405.4919
408.821
0.2 0.3 0.4
208.2168
258.4662
294.5797
311.6704
391.1203
413.4618
0.2 0.3 -0.5
193.6196
239.1951
313.3281
334.6448
370.8763
406.7196
0.2 0.4 0.0
234.8809
263.2151
323.8272
361.4571
379.9936
391.9729
0.2 0.4 0.1
221.1481
271.3297
330.4299
338.7425
390.7831
403.2815
0.2 0.4 0.2
211.5961
275.132
306.2793
341.7642
403.586
417.8538
0.2 0.4 0.3
230.2794
238.7682
323.2973
328.1802
417.1584
418.9963
0.2 0.4 0.4
213.4748
267.4872
308.7087
339.6602
407.5578
419.4626
0.2 0.4 -0.5
216.8137
274.8311
322.7054
340.5041
393.0695
407.9186
0.3 0.3 0.0
222.5437
223.9778
318.8807
368.5639
370.8299
399.4485
0.3 0.3 0.1
211.4883
237.295
317.0438
345.6483
384.3217
412.2395
0.3 0.3 0.2
210.8705
260.1809
292.7562
322.6001
405.6817
424.4426
0.3 0.3 0.3
236.1901
245.3163
294.2856
300.3817
421.9241
424.1161
0.3 0.3 0.4
214.8259
264.151
285.7887
317.5099
410.6621
425.6359
0.3 0.3 -0.5
209.2896
242.4745
313.6938
339.0054
389.282
416.1855
P	=	1000.01	V	=	113.2695	E	=	-655.44492846
0.0 0.0 0.0
-0.0
-0.0
0.0
262.9529
262.9529
472.792
0.0 0.0 0.1
65.8679
65.8679
142.8076
254.5969
254.5969
464.537
0.0 0.0 0.2
124.9783
124.9783
229.0463
229.0463
267.5763
436.4274
0.0 0.0 0.3
176.6904
176.6904
188.4953
188.4953
362.7627
381.4381
0.0 0.0 0.4
138.562
138.562
220.1019
220.1019
294.4251
425.4619
0.0 0.0 -0.5
81.4122
81.4122
176.316
249.8211
249.8211
459.6215
0.0 0.1 0.0
65.3507
70.9243
139.8558
271.833
288.8118
467.7309
0.0 0.1 0.1
97.392
109.2811
187.6817
264.1669
280.4912
460.0896
0.0 0.1 0.2
145.2457
159.7031
240.6436
255.6269
284.2391
434.4214
0.0 0.1 0.3
192.2476
203.1558
206.3145
217.2758
367.9575
384.7275
0.0 0.1 0.4
157.3747
171.6848
232.3854
247.0727
307.429
424.4758
0.0 0.1 -0.5
108.8179
122.4848
210.7893
259.7787
275.7872
455.5715
0.0 0.2 0.0
127.2919
132.0118
258.8519
292.4769
344.3444
453.1123
0.0 0.2 0.1
148.8036
151.6481
282.5429
286.1844
334.2707
448.6134
0.0 0.2 0.2
185.7132
200.1015
266.681
305.0585
336.5677
432.8069
0.0 0.2 0.3
225.6217
234.9616
250.6177
262.6328
389.6431
400.6271
0.0 0.2 0.4
195.853
212.9271
259.7585
295.5351
350.7756
426.4759
0.0 0.2 -0.5
156.9976
162.8245
282.5694
294.3613
328.7475
445.9023
0.0 0.3 0.0
176.0294
182.7465
314.0
343.5826
396.8545
430.814
0.0 0.3 0.1
189.5686
190.9994
308.7123
358.8458
377.3866
438.9718
0.0 0.3 0.2
221.0274
221.2888
292.2775
332.5304
396.2252
442.7198
0.0 0.3 0.3
256.7017
264.9194
268.7294
281.803
426.1909
431.5645
0.0 0.3 0.4
230.2692
231.8167
286.3837
320.4113
404.7004
441.4664
0.0 0.3 -0.5
196.3039
196.4168
305.6773
361.3657
373.6178
441.0282
0.0 0.4 0.0
201.0235
229.0502
329.7223
392.8727
404.4693
430.5166
0.0 0.4 0.1
213.255
226.0027
324.7159
375.8271
409.6203
446.7427
0.0 0.4 0.2
235.1443
242.7639
309.4151
331.3705
436.3505
459.9132
0.0 0.4 0.3
270.2194
276.2109
281.8666
283.9337
455.9887
458.7184
0.0 0.4 0.4
241.6622
251.2404
303.9492
319.0299
442.4077
461.0643
0.0 0.4 -0.5
219.5412
226.0857
321.8706
365.7173
416.0646
451.1637
0.0 -0.5 0.0
211.1186
262.1444
338.137
380.8831
415.1328
445.0305
0.0 -0.5 0.1
222.8521
251.5288
332.9965
361.7283
430.555
455.9104
0.0 -0.5 0.2
245.2779
251.6313
317.5961
322.0813
455.4439
469.74
0.0 -0.5 0.3
268.1522
277.8308
284.6608
292.3065
470.5827
472.1808
0.0 -0.5 0.4
248.122
259.9789
310.8385
312.1536
460.474
471.6283
0.0 -0.5 -0.5
228.9343
248.024
330.1041
352.984
437.0056
459.986
0.1 0.1 0.0
91.6171
100.0763
191.1349
280.8125
309.6195
462.76
0.1 0.1 0.1
120.5409
127.1978
225.3004
273.8242
300.9911
455.9233
0.1 0.1 0.2
162.5868
178.3211
251.6994
275.5889
302.1171
433.1065
0.1 0.1 0.3
205.8446
215.0423
227.2587
237.2886
374.3194
389.1005
0.1 0.1 0.4
173.7109
190.4278
244.1513
266.9675
321.7269
424.2857
0.1 0.1 -0.5
130.2005
140.2978
242.4004
269.9204
296.1525
451.896
0.1 0.2 0.0
141.2287
158.2741
265.0178
315.1098
351.6685
448.3944
0.1 0.2 0.1
158.1042
172.7668
282.7149
315.444
340.4388
445.3164
0.1 0.2 0.2
198.7087
205.7091
282.2057
309.5859
349.5142
433.0295
0.1 0.2 0.3
237.2607
238.9756
264.4525
269.6219
396.0463
405.6468
0.1 0.2 0.4
210.1862
214.8758
277.0948
299.7105
361.8696
427.791
0.1 0.2 -0.5
166.7798
179.9806
287.2789
319.1281
334.36
443.3356
0.1 0.3 0.0
191.5478
204.2467
311.2663
362.2311
395.2961
426.4346
0.1 0.3 0.1
192.538
217.7374
316.4097
365.4721
378.1568
436.5149
0.1 0.3 0.2
212.9438
246.1979
308.2978
330.928
400.1287
442.1109
0.1 0.3 0.3
251.9711
260.2057
291.7661
296.6655
427.641
432.5753
0.1 0.3 0.4
221.7679
253.6283
302.7698
320.9171
407.8104
441.2628
0.1 0.3 -0.5
195.2171
224.056
316.5554
360.0904
379.6968
439.0839
0.1 0.4 0.0
230.3618
235.5075
337.3037
395.4305
400.3155
427.4414
0.1 0.4 0.1
222.9233
246.9356
335.6083
372.4733
410.8332
443.0239
0.1 0.4 0.2
225.1886
272.15
313.4374
342.0433
434.6594
456.5947
0.1 0.4 0.3
254.0139
263.8255
309.2962
315.9364
453.2708
455.8581
0.1 0.4 0.4
230.0646
277.8024
305.3523
335.5942
440.3535
457.8574
0.1 0.4 -0.5
221.3322
252.493
332.7376
364.1674
416.3091
447.5138
0.2 0.2 0.0
174.065
182.6866
302.409
340.8168
384.121
434.9606
0.2 0.2 0.1
180.7308
197.4817
306.2452
349.5637
368.2571
438.8662
0.2 0.2 0.2
209.6766
229.2009
295.8168
327.7108
384.7921
438.5312
0.2 0.2 0.3
249.9892
255.6348
278.7481
285.0675
417.6645
423.8955
0.2 0.2 0.4
219.7821
237.9995
290.5406
316.7287
393.8296
436.3929
0.2 0.2 -0.5
185.792
204.4465
305.5789
352.6416
363.6083
439.7667
0.2 0.3 0.0
213.6894
238.904
321.2674
389.2307
401.4258
414.1989
0.2 0.3 0.1
208.1461
249.2933
331.8854
368.7544
395.7104
433.7874
0.2 0.3 0.2
216.2842
271.328
323.926
336.139
415.0049
445.0516
0.2 0.3 0.3
250.1149
260.2595
314.2004
318.9991
436.7374
440.3932
0.2 0.3 0.4
222.7677
275.0485
315.4607
332.6826
421.1097
445.4256
0.2 0.3 -0.5
207.6968
254.4321
334.4073
358.5853
399.0116
437.9819
0.2 0.4 0.0
251.9886
280.6678
345.8555
388.9423
407.3326
421.7475
0.2 0.4 0.1
237.1581
289.2644
353.9746
362.832
420.7392
433.5371
0.2 0.4 0.2
226.7139
293.6641
328.381
365.4083
434.6989
449.9012
0.2 0.4 0.3
246.4431
255.5412
345.7478
350.9622
449.3604
451.3497
0.2 0.4 0.4
228.6687
285.813
330.6036
363.153
439.018
451.7375
0.2 0.4 -0.5
232.4514
292.971
346.2418
364.1524
423.3021
438.7538
0.3 0.3 0.0
237.0636
240.5511
340.3035
396.8957
398.241
429.0942
0.3 0.3 0.1
226.6463
253.3036
338.4288
371.2299
413.4281
443.4125
0.3 0.3 0.2
225.9472
277.4813
313.4212
345.3198
436.7224
457.1592
0.3 0.3 0.3
252.7672
262.4812
314.5438
321.0844
454.5844
456.9987
0.3 0.3 0.4
230.16
281.716
306.0915
339.6268
442.2273
458.5463
0.3 0.3 -0.5
224.3158
258.7969
334.9671
363.8168
418.8507
447.862
P	=	1500.24	V	=	105.7578	E	=	-655.38176489
0.0 0.0 0.0
-0.0
0.0
0.0
291.0719
291.0719
534.0309
0.0 0.0 0.1
72.7625
72.7625
159.3503
281.9072
281.9072
523.7397
0.0 0.0 0.2
137.9316
137.9316
253.5865
253.5865
299.0397
490.286
0.0 0.0 0.3
195.1841
195.1841
208.3876
208.3876
406.134
427.3642
0.0 0.0 0.4
153.0047
153.0047
243.5676
243.5676
329.3352
477.5125
0.0 0.0 -0.5
89.9919
89.9919
196.9986
276.61
276.61
517.7134
0.0 0.1 0.0
72.1919
78.3107
156.1599
301.024
320.0495
528.0394
0.0 0.1 0.1
107.6346
120.3345
209.8285
292.5869
310.8183
518.6145
0.0 0.1 0.2
160.3529
176.1786
266.3993
283.0401
317.859
488.1968
0.0 0.1 0.3
212.3037
224.5068
227.8883
240.1646
412.1766
431.2813
0.0 0.1 0.4
173.7826
189.516
257.1131
273.4157
344.0393
476.6189
0.0 0.1 -0.5
120.3117
135.0204
235.773
287.6994
305.5508
513.1171
0.0 0.2 0.0
140.6062
145.8341
289.1483
324.2611
382.5752
510.7435
0.0 0.2 0.1
164.5153
167.1931
315.7827
317.2726
371.2399
505.2296
0.0 0.2 0.2
205.1387
220.8726
295.3162
338.1165
376.6872
486.5175
0.0 0.2 0.3
249.1592
259.6254
277.1073
290.5853
436.8042
449.4164
0.0 0.2 0.4
216.3314
235.2116
287.4543
327.3704
392.781
479.1152
0.0 0.2 -0.5
173.6212
179.5813
313.2026
329.0804
365.0171
501.9455
0.0 0.3 0.0
194.6119
201.8967
348.7288
383.9605
442.4993
484.3918
0.0 0.3 0.1
209.6834
211.2639
342.7849
400.5886
421.2978
493.2161
0.0 0.3 0.2
244.6098
244.9251
324.0447
369.6779
443.7422
497.1498
0.0 0.3 0.3
283.7456
292.9969
298.1094
312.7847
477.8646
484.0853
0.0 0.3 0.4
254.5314
257.0243
317.276
355.9797
453.3875
495.6198
0.0 0.3 -0.5
217.2782
217.2979
339.3233
402.2733
418.1676
495.4802
0.0 0.4 0.0
222.4547
253.2409
366.8905
439.2532
453.3188
481.9554
0.0 0.4 0.1
236.0466
250.6781
361.196
419.7207
458.7021
501.1595
0.0 0.4 0.2
261.7332
268.621
343.6062
369.3707
489.1191
516.4857
0.0 0.4 0.3
300.8217
305.7824
313.8663
314.5237
511.7635
514.9663
0.0 0.4 0.4
269.0871
278.0324
337.2895
355.408
496.1056
517.7952
0.0 0.4 -0.5
243.0398
251.0796
357.9185
408.166
466.0239
506.3554
0.0 -0.5 0.0
233.819
290.2007
376.7921
425.5749
464.3642
499.7497
0.0 -0.5 0.1
246.8411
279.3472
370.8987
404.0234
482.0224
512.3772
0.0 -0.5 0.2
273.5358
278.7096
353.1527
359.6184
510.8258
528.3465
0.0 -0.5 0.3
299.2432
310.1061
315.5783
324.2576
528.7683
530.7603
0.0 -0.5 0.4
276.8448
288.0249
346.8599
346.9642
516.7513
530.4685
0.0 -0.5 -0.5
253.6153
275.7943
367.551
394.1702
489.4793
517.1363
0.1 0.1 0.0
101.2021
110.5383
213.4126
311.1577
343.4075
522.1563
0.1 0.1 0.1
133.2304
140.074
251.8068
303.4705
333.7573
513.7856
0.1 0.1 0.2
179.5454
196.6589
278.6479
305.2113
338.0072
486.8221
0.1 0.1 0.3
227.2905
237.5382
251.121
262.3228
419.4759
436.3529
0.1 0.1 0.4
191.8443
210.1618
270.1397
295.4851
360.164
476.553
0.1 0.1 -0.5
143.9648
154.5903
270.9913
299.1723
328.3041
508.9108
0.1 0.2 0.0
155.9775
174.9504
294.8825
350.9522
390.7945
505.1604
0.1 0.2 0.1
174.3145
191.0674
313.9424
352.2445
378.1313
501.3037
0.1 0.2 0.2
219.2623
227.3138
312.574
343.2998
391.3442
486.6879
0.1 0.2 0.3
261.9341
263.8274
292.8003
298.5768
444.0514
455.0833
0.1 0.2 0.4
232.0662
237.4202
306.8114
332.1384
405.3379
480.553
0.1 0.2 -0.5
183.9208
199.0831
318.5866
356.899
371.2493
498.8773
0.1 0.3 0.0
211.5581
225.9231
345.3321
405.2387
440.8431
479.2007
0.1 0.3 0.1
212.8231
240.9493
351.0157
407.5395
423.177
490.1635
0.1 0.3 0.2
235.6955
272.3422
341.9972
367.8834
448.3946
496.3139
0.1 0.3 0.3
278.727
287.7218
323.7984
329.2446
479.6016
485.2802
0.1 0.3 0.4
245.5289
280.5319
335.8142
356.5422
457.1047
495.2942
0.1 0.3 -0.5
215.895
247.9873
351.1927
400.8075
425.488
493.029
0.1 0.4 0.0
255.0509
260.2728
374.8054
442.3535
448.3801
478.701
0.1 0.4 0.1
246.77
273.6734
373.024
415.6367
460.4091
496.7913
0.1 0.4 0.2
250.046
301.5924
348.3885
380.9378
487.3671
512.5339
0.1 0.4 0.3
281.8896
292.6811
343.7797
351.2594
508.7231
511.7208
0.1 0.4 0.4
255.5445
307.7748
339.4762
373.5407
493.9087
514.0098
0.1 0.4 -0.5
245.2246
279.9086
369.8212
406.0981
466.5956
502.0219
0.2 0.2 0.0
192.2573
201.9907
335.6718
380.879
427.8894
489.2807
0.2 0.2 0.1
199.6438
218.4722
339.7157
390.557
410.5516
493.3458
0.2 0.2 0.2
231.8119
253.5
327.9189
364.0204
431.0013
492.5262
0.2 0.2 0.3
276.2673
282.5077
309.0552
316.2121
468.3209
475.5083
0.2 0.2 0.4
243.0556
263.2505
321.9339
351.6234
441.2535
489.9763
0.2 0.2 -0.5
205.3114
226.2311
338.9344
392.7597
406.5602
494.2555
0.2 0.3 0.0
235.9809
264.4643
356.2642
435.988
448.1687
464.7297
0.2 0.3 0.1
230.1943
275.9492
368.1794
411.029
443.8981
486.3823
0.2 0.3 0.2
239.7476
300.0589
360.2522
373.4039
465.4511
499.3197
0.2 0.3 0.3
277.0108
288.1257
349.0171
354.2861
489.9878
494.1502
0.2 0.3 0.4
247.0005
304.0614
350.862
369.4842
472.3484
499.7849
0.2 0.3 -0.5
229.8613
281.6376
371.0885
399.3833
447.6176
491.1915
0.2 0.4 0.0
278.37
311.2026
383.7903
434.9105
455.0304
473.4641
0.2 0.4 0.1
262.3752
320.5568
393.6893
403.7713
472.2411
485.5201
0.2 0.4 0.2
251.7896
324.8474
365.6467
406.7054
487.8471
504.4438
0.2 0.4 0.3
273.6275
283.5424
384.7896
390.674
504.3698
506.582
0.2 0.4 0.4
254.1195
316.284
368.0135
404.2634
492.726
506.6829
0.2 0.4 -0.5
257.375
324.5562
385.3861
404.8652
475.1857
491.4774
0.3 0.3 0.0
262.5248
265.8564
378.141
444.3432
445.497
480.7646
0.3 0.3 0.1
250.8918
280.7659
376.1887
414.2039
463.3099
497.2516
0.3 0.3 0.2
250.9292
307.5031
348.4863
384.6063
489.718
513.1719
0.3 0.3 0.3
280.5778
291.2618
349.7134
357.0913
510.2432
513.041
0.3 0.3 0.4
255.7041
312.0783
340.4583
378.0864
496.0518
514.7969
0.3 0.3 -0.5
248.5284
286.9277
372.3399
405.6665
469.4575
502.4194
P	=	1999.96	V	=	100.1114	E	=	-655.31496809
0.0 0.0 0.0
-0.0
0.0
0.0
313.4998
313.4998
585.9823
0.0 0.0 0.1
76.2258
76.2258
172.2929
303.5421
303.5421
573.8904
0.0 0.0 0.2
146.2932
146.2932
272.8634
272.8634
324.4013
535.6671
0.0 0.0 0.3
209.1236
209.1236
223.6186
223.6186
442.0613
465.5444
0.0 0.0 0.4
162.7956
162.7956
261.9821
261.9821
357.6128
521.3039
0.0 0.0 -0.5
94.5548
94.5548
213.1915
297.7946
297.7946
566.8972
0.0 0.1 0.0
77.2149
83.7152
169.5578
324.3896
345.1658
579.1514
0.0 0.1 0.1
114.3487
128.1405
227.6571
315.1894
335.0844
568.1103
0.0 0.1 0.2
170.9728
188.0694
286.7804
304.8252
345.2485
533.3893
0.0 0.1 0.3
227.8298
241.1924
244.5779
258.0314
448.8312
469.9612
0.0 0.1 0.4
185.6408
202.6013
276.6964
294.3341
373.9314
520.3723
0.0 0.1 -0.5
127.8132
143.778
255.8267
309.8726
329.338
561.7429
0.0 0.2 0.0
150.5348
156.2107
314.2221
349.8689
413.7062
559.4509
0.0 0.2 0.1
176.1419
179.0498
342.1821
343.1265
401.2877
552.958
0.0 0.2 0.2
220.068
236.9838
318.2655
364.8067
409.8009
531.4961
0.0 0.2 0.3
268.0771
279.4884
298.1359
312.8557
475.9747
489.9713
0.0 0.2 0.4
232.2739
252.5516
309.7228
353.0458
427.4622
523.1334
0.0 0.2 -0.5
185.9353
192.389
337.7253
357.5667
394.5044
549.1352
0.0 0.3 0.0
209.0572
216.508
376.8615
417.6541
480.1219
529.4746
0.0 0.3 0.1
225.3777
226.9901
370.27
435.1225
457.7272
538.7822
0.0 0.3 0.2
263.3269
263.7974
349.7345
400.0724
483.3234
542.7349
0.0 0.3 0.3
305.9033
315.9681
321.7165
337.7586
520.954
527.8966
0.0 0.3 0.4
274.1328
276.9734
342.355
385.041
493.9162
540.9324
0.0 0.3 -0.5
233.6254
233.6465
366.4511
435.919
455.2945
541.188
0.0 0.4 0.0
239.7215
272.1847
397.132
478.1667
494.1614
524.9408
0.0 0.4 0.1
254.4698
270.1249
390.7958
456.2348
499.9602
546.7491
0.0 0.4 0.2
282.878
289.8032
371.404
400.856
533.3267
563.9753
0.0 0.4 0.3
325.6253
330.1394
339.6534
339.9186
558.5037
562.1159
0.0 0.4 0.4
290.9516
300.0215
364.4777
385.4962
541.0635
565.4096
0.0 0.4 -0.5
262.0635
270.8178
387.1611
443.5086
507.9472
552.6192
0.0 -0.5 0.0
252.5983
312.6787
408.3467
462.6274
505.771
545.9978
0.0 -0.5 0.1
266.6696
301.7872
401.7885
439.1949
525.2374
559.9944
0.0 -0.5 0.2
296.4451
301.0866
382.1485
390.7653
557.3079
577.7356
0.0 -0.5 0.3
324.6622
336.5563
341.0291
350.4865
577.7106
580.058
0.0 -0.5 0.4
300.1449
311.166
375.2158
376.9055
563.9907
580.0408
0.0 -0.5 -0.5
273.9924
298.2482
398.0674
428.4636
533.4983
565.3017
0.1 0.1 0.0
108.2771
118.306
231.7472
335.5355
370.7139
572.4475
0.1 0.1 0.1
142.1753
149.5826
273.3589
327.1547
360.1412
562.658
0.1 0.1 0.2
192.0186
210.4077
300.0924
328.9177
367.4277
531.885
0.1 0.1 0.3
244.1753
255.3195
269.8603
282.0657
456.9315
475.6074
0.1 0.1 0.4
205.4366
225.0916
290.8573
318.2892
391.7086
520.3337
0.1 0.1 -0.5
153.6231
165.0982
294.1504
322.5435
354.172
557.0168
0.1 0.2 0.0
167.025
187.751
319.3095
380.3078
422.6831
553.0957
0.1 0.2 0.1
186.6956
204.9909
339.1529
382.5066
408.7953
548.4901
0.1 0.2 0.2
235.2469
244.1824
336.9974
370.5881
425.9601
531.639
0.1 0.2 0.3
281.7665
283.7311
315.5932
321.7945
483.9575
496.207
0.1 0.2 0.4
249.1581
255.1711
330.7739
358.3634
441.3085
524.6888
0.1 0.2 -0.5
197.0484
213.6226
343.7538
387.9987
401.2681
545.6403
0.1 0.3 0.0
226.8742
243.0382
373.0864
440.9825
478.4088
523.5707
0.1 0.3 0.1
228.5381
259.3067
379.0
442.1699
460.7502
535.2713
0.1 0.3 0.2
253.5848
293.3734
369.2997
398.1795
488.6639
541.7874
0.1 0.3 0.3
300.2706
309.9813
349.8989
355.7901
522.9652
529.2845
0.1 0.3 0.4
264.2794
302.2553
362.6761
385.7017
498.1959
540.5734
0.1 0.3 -0.5
231.9615
266.949
379.1637
434.3382
463.7066
538.3725
0.1 0.4 0.0
275.0887
279.7021
405.3732
481.5914
488.5503
521.5748
0.1 0.4 0.1
265.679
295.2742
403.4197
451.6069
502.1018
541.8616
0.1 0.4 0.2
269.7643
325.596
377.1218
413.0102
531.5508
559.5452
0.1 0.4 0.3
304.4359
316.1303
372.0893
380.2276
555.1839
558.5445
0.1 0.4 0.4
275.7966
332.237
367.5973
404.755
538.761
561.1791
0.1 0.4 -0.5
264.1575
302.0996
399.9852
441.0531
508.8366
547.7542
0.2 0.2 0.0
206.0716
217.0234
362.7432
414.0911
463.8503
535.0319
0.2 0.2 0.1
214.2378
234.8451
366.723
424.3994
445.4915
539.1846
0.2 0.2 0.2
249.2316
272.8748
353.8531
393.6522
469.4478
537.7763
0.2 0.2 0.3
297.494
304.2606
333.6168
341.4122
510.5307
518.5352
0.2 0.2 0.4
261.4511
283.4789
347.3771
380.0699
480.6866
534.8272
0.2 0.2 -0.5
220.4309
243.2652
365.8103
425.6194
442.3094
540.0682
0.2 0.3 0.0
253.2233
284.9729
384.8872
474.789
486.9827
507.1225
0.2 0.3 0.1
247.3564
297.3624
397.649
446.0101
484.2605
530.5745
0.2 0.3 0.2
258.118
323.3578
390.1959
403.7622
507.6737
544.9385
0.2 0.3 0.3
298.6111
310.6384
377.5357
383.1349
534.5083
539.1163
0.2 0.3 0.4
266.0329
327.6495
380.0634
399.4464
515.1845
545.4292
0.2 0.3 -0.5
247.1325
303.5094
400.8176
433.2079
488.331
535.9283
0.2 0.4 0.0
299.205
336.1995
414.9776
473.2619
494.5028
516.9304
0.2 0.4 0.1
282.3909
346.1502
426.4034
437.8309
515.4973
529.133
0.2 0.4 0.2
271.5455
350.6275
396.7246
440.3883
532.4765
550.3534
0.2 0.4 0.3
295.4788
306.2603
416.8685
423.2242
550.4373
552.8583
0.2 0.4 0.4
274.1693
341.5563
399.0145
437.8248
537.7588
552.8865
0.2 0.4 -0.5
277.1542
350.3792
418.1843
438.235
518.8066
535.7598
0.3 0.3 0.0
283.2586
285.7645
409.0035
483.9653
485.0015
524.0429
0.3 0.3 0.1
270.156
303.0273
406.9031
450.0462
505.2554
542.4031
0.3 0.3 0.2
270.7558
332.0062
377.4234
416.9672
534.1561
560.2658
0.3 0.3 0.3
303.0655
314.6539
378.5965
386.6274
556.8891
560.0293
0.3 0.3 0.4
276.0083
336.8945
368.8426
409.7047
541.143
562.068
0.3 0.3 -0.5
267.7547
309.7618
402.8138
440.5549
511.9732
548.2123
P	=	2499.36	V	=	95.5991	E	=	-655.24618907
0.0 0.0 0.0
-0.0
0.0
0.0
333.6962
333.6962
630.8778
0.0 0.0 0.1
80.5633
80.5633
182.0943
323.1979
323.1979
617.102
0.0 0.0 0.2
155.0322
155.0322
290.5924
290.5924
345.075
574.7102
0.0 0.0 0.3
222.2893
222.2893
237.8691
237.8691
472.6801
498.2714
0.0 0.0 0.4
172.6956
172.6956
278.9433
278.9433
381.0665
558.9611
0.0 0.0 -0.5
100.029
100.029
225.7471
317.101
317.101
609.225
0.0 0.1 0.0
80.2913
88.8165
181.4604
345.3834
367.591
623.2875
0.0 0.1 0.1
121.1824
134.1075
242.8674
335.6413
356.8771
610.7461
0.0 0.1 0.2
181.3993
198.8592
305.3982
324.5094
368.17
572.2877
0.0 0.1 0.3
242.2556
256.6088
259.7325
274.2367
480.198
503.1945
0.0 0.1 0.4
197.1038
214.563
294.6014
313.2308
399.1377
558.023
0.0 0.1 -0.5
135.4872
151.0182
272.7189
329.9843
350.738
603.5889
0.0 0.2 0.0
157.1027
165.9164
336.4596
372.774
441.1926
601.3967
0.0 0.2 0.1
187.0509
187.6039
364.5455
367.182
427.849
594.043
0.0 0.2 0.2
233.8686
250.2495
338.9738
388.3021
438.5403
570.3138
0.0 0.2 0.3
285.2506
297.4932
316.3435
332.2573
509.8787
525.0893
0.0 0.2 0.4
246.9476
267.1341
329.8205
375.5907
457.5362
561.1501
0.0 0.2 -0.5
197.4856
202.015
359.7674
382.5299
420.5694
589.7579
0.0 0.3 0.0
222.4389
227.0498
401.8997
447.433
513.1933
568.0996
0.0 0.3 0.1
238.9081
239.7768
394.7706
465.357
489.6272
578.1187
0.0 0.3 0.2
279.1762
280.2385
372.6969
426.2978
517.9535
582.3393
0.0 0.3 0.3
325.7623
336.5513
341.6925
359.0265
558.5457
566.1047
0.0 0.3 0.4
291.8092
293.46
364.7728
410.0273
529.3578
580.3426
0.0 0.3 -0.5
246.28
248.5968
390.6439
465.1966
487.8624
580.7246
0.0 0.4 0.0
255.6121
286.8268
423.8961
512.424
528.911
562.7075
0.0 0.4 0.1
271.2693
285.5641
417.0243
487.5229
536.1173
586.5312
0.0 0.4 0.2
300.3125
308.8435
396.1024
427.7167
571.9859
605.4445
0.0 0.4 0.3
346.508
351.8627
361.9489
362.055
599.3495
603.3214
0.0 0.4 0.4
309.1157
319.7499
388.6417
411.0988
580.3777
607.0003
0.0 0.4 -0.5
279.3547
286.6594
413.0828
473.7417
544.6851
592.9961
0.0 -0.5 0.0
269.8301
330.7645
436.1395
493.9372
542.1596
586.6063
0.0 -0.5 0.1
284.7458
320.1154
429.0435
469.0188
563.0738
601.7074
0.0 -0.5 0.2
315.5392
321.2217
407.8268
417.1871
597.9119
620.9521
0.0 -0.5 0.3
346.0787
358.8996
363.701
373.8262
620.4845
623.1578
0.0 -0.5 0.4
319.6408
331.9402
400.3422
402.2674
605.2639
623.4124
0.0 -0.5 -0.5
292.5221
316.6908
425.0095
457.5417
572.0159
607.484
0.1 0.1 0.0
112.7352
125.5706
248.0442
357.3868
394.9717
615.8379
0.1 0.1 0.1
150.7175
156.5493
292.1735
348.5032
383.6698
604.7448
0.1 0.1 0.2
203.8643
222.2412
319.5533
350.1046
392.5109
570.6971
0.1 0.1 0.3
259.6862
271.5588
286.5574
299.6571
489.118
509.4231
0.1 0.1 0.4
218.2376
238.1746
309.6683
338.6446
418.6583
558.044
0.1 0.1 -0.5
162.9581
173.2168
314.1958
343.6437
377.2606
598.415
0.1 0.2 0.0
174.4934
199.4511
341.0892
406.4148
450.8207
594.3315
0.1 0.2 0.1
195.7375
217.7303
361.4988
409.3531
435.8495
589.0972
0.1 0.2 0.2
248.4726
259.4582
358.7723
394.5465
456.1305
570.4666
0.1 0.2 0.3
299.5155
301.3911
335.5529
341.9956
518.582
531.8851
0.1 0.2 0.4
263.6467
271.1729
352.1177
381.3171
472.6195
562.8505
0.1 0.2 -0.5
206.994
226.9245
366.1029
415.4471
427.7407
585.8997
0.1 0.3 0.0
238.086
258.53
397.7809
472.5558
511.4728
561.5289
0.1 0.3 0.1
240.7018
275.6749
403.8115
472.3918
493.8067
574.1958
0.1 0.3 0.2
268.3637
312.0005
393.4239
424.3818
523.943
581.2901
0.1 0.3 0.3
318.8428
329.3851
372.6291
378.9172
560.8221
567.6792
0.1 0.3 0.4
279.9828
321.4807
386.3208
410.9086
534.1707
579.9555
0.1 0.3 -0.5
244.6283
283.8348
403.9468
463.4898
497.3167
577.5815
0.1 0.4 0.0
293.1697
294.8493
432.3908
516.125
522.6641
559.2868
0.1 0.4 0.1
281.2233
314.1579
430.2255
482.4753
538.6453
581.1787
0.1 0.4 0.2
286.2375
346.6942
402.1452
440.8033
570.2196
600.5739
0.1 0.4 0.3
323.6465
336.2263
396.8409
405.5534
595.7954
599.4678
0.1 0.4 0.4
292.817
353.6891
392.0056
431.8825
578.0091
602.3638
0.1 0.4 -0.5
279.7467
321.5909
426.5411
471.0507
545.8718
587.6456
0.2 0.2 0.0
215.9068
230.7674
386.8469
443.4953
495.4958
574.2636
0.2 0.2 0.1
225.4328
249.4726
390.7444
454.0923
476.2153
578.677
0.2 0.2 0.2
263.7287
290.0119
376.9146
419.3495
503.0944
577.0166
0.2 0.2 0.3
316.0977
323.4439
354.9701
363.199
547.327
556.0247
0.2 0.2 0.4
277.0197
301.3423
369.963
404.6665
515.169
573.7709
0.2 0.2 -0.5
232.3057
258.4538
389.7146
454.2784
473.79
579.6064
0.2 0.3 0.0
266.2762
303.2508
410.3383
508.8453
521.3097
543.2527
0.2 0.3 0.1
260.8116
316.3718
423.6593
476.3385
519.8126
568.7836
0.2 0.3 0.2
273.2538
343.9023
416.1149
430.3391
544.7045
584.6136
0.2 0.3 0.3
317.0008
329.9558
402.4381
408.3792
573.4221
578.3928
0.2 0.3 0.4
281.8834
348.379
405.2846
425.7032
552.7286
585.1749
0.2 0.3 -0.5
260.8573
322.9075
427.0149
462.4688
524.1648
574.6814
0.2 0.4 0.0
315.7629
358.2801
442.5793
505.6882
529.1689
555.2198
0.2 0.4 0.1
298.6158
368.691
454.8139
467.3563
553.4038
567.1679
0.2 0.4 0.2
287.9431
372.9203
423.7377
469.8471
571.5973
590.3583
0.2 0.4 0.3
313.9475
325.5513
444.8986
451.6741
590.7202
593.3016
0.2 0.4 0.4
290.9017
363.2492
426.0672
467.165
577.2159
593.1812
0.2 0.4 -0.5
293.2844
373.0905
446.4011
467.4281
557.0905
574.3196
0.3 0.3 0.0
301.3832
301.9161
436.2613
517.5762
519.7595
562.1125
0.3 0.3 0.1
285.9913
322.523
433.9429
480.7833
542.0117
581.8225
0.3 0.3 0.2
287.319
353.5219
402.5461
445.0718
573.0448
601.3756
0.3 0.3 0.3
322.1973
334.6603
403.8577
412.4577
597.664
601.0986
0.3 0.3 0.4
293.0642
358.5937
393.465
437.2269
580.5983
603.3484
0.3 0.3 -0.5
283.5936
329.83
429.5686
470.5148
549.2402
588.1797
P	=	3000.06	V	=	91.8661	E	=	-655.17657597
0.0 0.0 0.0
-0.0
0.0
0.0
351.9237
351.9237
672.6948
0.0 0.0 0.1
85.7402
85.7402
195.3174
340.9262
340.9262
657.4645
0.0 0.0 0.2
164.0757
164.0757
306.5144
306.5144
368.0928
611.0955
0.0 0.0 0.3
234.4998
234.4998
250.8436
250.8436
502.355
529.335
0.0 0.0 0.4
182.5145
182.5145
294.2223
294.2223
405.8942
594.1201
0.0 0.0 -0.5
106.2671
106.2671
241.7212
334.5277
334.5277
648.8077
0.0 0.1 0.0
86.6273
93.8185
192.311
364.2883
387.751
664.4126
0.0 0.1 0.1
128.2773
143.509
258.5285
354.0504
376.4808
650.5778
0.0 0.1 0.2
191.6864
210.5803
322.0982
342.2317
392.0598
608.5505
0.0 0.1 0.3
255.5049
270.5724
273.9394
289.1293
510.2816
534.5755
0.0 0.1 0.4
208.1089
226.8224
310.7039
330.3152
424.6966
593.173
0.0 0.1 -0.5
143.3735
161.0304
290.4881
348.1015
370.0181
642.7252
0.0 0.2 0.0
168.7172
175.2672
356.6098
393.3238
465.8005
640.5554
0.0 0.2 0.1
197.5428
200.6884
384.6087
389.4055
451.717
632.4285
0.0 0.2 0.2
246.7651
265.4868
357.5144
409.7041
465.5663
606.3856
0.0 0.2 0.3
300.794
313.6697
334.013
350.6254
541.4191
557.6231
0.0 0.2 0.4
260.4757
282.8816
347.8469
396.2899
485.7105
596.4481
0.0 0.2 -0.5
208.4992
215.6265
379.5582
405.6934
444.0883
627.7123
0.0 0.3 0.0
235.0346
242.4211
424.3068
474.1988
542.7666
604.3365
0.0 0.3 0.1
253.1633
254.695
416.7015
492.699
518.5907
614.6164
0.0 0.3 0.2
295.6095
296.401
393.2297
450.7449
549.3332
618.6257
0.0 0.3 0.3
343.575
354.9484
361.6355
379.7955
592.6235
600.7558
0.0 0.3 0.4
307.7539
311.2131
384.8434
433.5931
561.4196
616.3522
0.0 0.3 -0.5
262.301
262.3781
412.3164
491.9344
517.3648
617.2811
0.0 0.4 0.0
270.2313
304.6836
447.799
543.0574
561.8184
596.3704
0.0 0.4 0.1
286.5629
303.5261
440.4583
516.7456
568.6394
622.5389
0.0 0.4 0.2
319.0702
325.9236
418.1613
453.2729
606.6794
642.8915
0.0 0.4 0.3
367.5478
371.2634
382.0234
383.7736
636.0074
640.3193
0.0 0.4 0.4
328.2663
337.3658
410.2459
435.7214
615.6126
644.4979
0.0 0.4 -0.5
294.993
304.7181
436.2622
502.1269
577.6663
629.5299
0.0 -0.5 0.0
285.4307
350.262
460.9156
524.0319
574.6796
622.609
0.0 -0.5 0.1
301.0036
339.68
453.3537
497.4667
596.979
638.9999
0.0 -0.5 0.2
335.5381
339.186
430.734
442.5961
634.2854
659.6869
0.0 -0.5 0.3
367.6781
381.1278
383.915
394.6055
658.7606
661.7212
0.0 -0.5 0.4
339.8828
350.4162
422.7821
426.8729
642.1942
662.2637
0.0 -0.5 -0.5
309.1113
336.3151
449.063
485.3206
606.5043
645.2324
0.1 0.1 0.0
121.4294
132.6234
262.8709
377.0367
416.7301
656.2894
0.1 0.1 0.1
159.4034
167.549
310.2541
367.7041
404.8087
644.0694
0.1 0.1 0.2
215.2535
235.5183
337.0243
369.2417
417.3982
606.8672
0.1 0.1 0.3
273.8413
286.312
302.2962
315.9843
519.6551
541.1597
0.1 0.1 0.4
230.2971
251.9233
326.5903
357.131
445.0419
593.2151
0.1 0.1 -0.5
172.2356
184.8895
333.7269
362.677
398.051
637.1304
0.1 0.2 0.0
187.1212
210.5389
360.7128
429.9461
475.9796
632.8644
0.1 0.2 0.1
209.203
229.7937
381.8831
433.7118
460.1664
627.0345
0.1 0.2 0.2
263.5107
273.6817
378.4797
416.4566
484.1222
606.4884
0.1 0.2 0.3
315.758
317.8422
354.2855
361.118
550.5788
564.7782
0.1 0.2 0.4
279.0633
285.997
371.4723
402.5132
501.6106
598.2015
0.1 0.2 -0.5
220.8005
239.4453
386.4723
440.465
451.6637
623.4925
0.1 0.3 0.0
253.9071
272.9087
419.9035
500.873
541.0573
597.1963
0.1 0.3 0.1
256.2537
291.0094
426.1723
499.7809
523.6879
610.3043
0.1 0.3 0.2
284.6524
329.0835
415.2849
448.7893
555.8097
617.4694
0.1 0.3 0.3
336.9063
347.6568
393.821
400.3745
595.0912
602.464
0.1 0.3 0.4
296.6451
339.0038
407.9396
434.5019
566.6316
615.9204
0.1 0.3 -0.5
260.2247
299.5411
426.3008
490.2067
527.6122
613.8215
0.1 0.4 0.0
309.6525
312.9426
456.5454
546.9785
555.0311
592.9233
0.1 0.4 0.1
298.2745
332.0953
454.2989
511.3001
571.4974
616.7767
0.1 0.4 0.2
303.6886
365.9768
425.3605
466.4804
604.8956
637.6518
0.1 0.4 0.3
342.7278
355.7707
419.5462
428.6979
632.2458
636.2228
0.1 0.4 0.4
310.5444
373.2722
414.9197
456.8545
613.1679
639.52
0.1 0.4 -0.5
296.8128
339.7935
450.4941
499.1249
579.0963
623.7613
0.2 0.2 0.0
230.7236
243.6617
408.4529
469.9397
523.8029
611.0355
0.2 0.2 0.1
240.2182
263.5155
412.3744
480.8955
504.0446
615.4537
0.2 0.2 0.2
279.596
306.116
397.7076
443.17
533.6802
613.1188
0.2 0.2 0.3
333.6536
341.1917
375.0974
383.8464
580.812
590.1495
0.2 0.2 0.4
293.2813
318.0097
390.4148
427.6932
546.4716
609.5013
0.2 0.2 -0.5
247.2393
272.9317
411.252
480.3294
502.329
616.3222
0.2 0.3 0.0
283.2273
319.9884
433.1303
539.181
552.1451
577.3469
0.2 0.3 0.1
277.2906
333.6954
447.1685
504.1962
551.688
604.0318
0.2 0.3 0.2
289.9247
362.4482
440.3411
454.5759
577.9568
620.8031
0.2 0.3 0.3
335.3433
348.7154
425.2717
431.3558
608.4937
613.8384
0.2 0.3 0.4
298.8387
367.1694
429.0965
449.5373
586.4275
621.3244
0.2 0.3 -0.5
277.2462
340.5034
450.7101
489.5637
556.2771
610.3059
0.2 0.4 0.0
334.5554
378.2054
467.2755
536.6005
560.1288
589.3547
0.2 0.4 0.1
316.6475
388.9903
480.7764
494.7724
587.3281
601.6573
0.2 0.4 0.2
305.5625
393.6262
448.8135
496.4255
606.5691
626.5941
0.2 0.4 0.3
332.7252
344.8065
470.2635
477.3475
626.8709
629.6441
0.2 0.4 0.4
308.6459
383.8761
450.8864
493.6292
612.4913
629.599
0.2 0.4 -0.5
311.109
393.5154
472.8444
493.9694
591.2767
609.3199
0.3 0.3 0.0
318.8788
319.7108
460.6294
549.5166
550.8081
596.0516
0.3 0.3 0.1
303.2807
340.8696
458.2635
509.5368
575.039
617.4433
0.3 0.3 0.2
304.8563
373.1478
426.0039
470.9044
607.9051
638.4944
0.3 0.3 0.3
341.277
354.2186
426.9628
436.0012
634.2463
637.9688
0.3 0.3 0.4
310.8486
378.4684
416.6062
462.4476
615.9312
640.5633
0.3 0.3 -0.5
300.8546
348.4515
453.7873
498.5352
582.6597
624.3072
P	=	4999.61	V	=	81.3108	E	=	-654.89563195
0.0 0.0 0.0
-0.0
-0.0
0.0
410.5318
410.5318
807.9005
0.0 0.0 0.1
102.5955
102.5955
230.9533
397.9441
397.9441
787.4858
0.0 0.0 0.2
193.9164
193.9164
357.9984
357.9984
435.8213
727.9391
0.0 0.0 0.3
274.7249
274.7249
293.3191
293.3191
595.8467
627.844
0.0 0.0 0.4
214.8108
214.8108
343.8754
343.8754
480.1816
707.1069
0.0 0.0 -0.5
126.475
126.475
285.1884
390.6707
390.6707
776.271
0.0 0.1 0.0
101.2612
109.791
227.6849
425.1112
452.4106
797.2382
0.0 0.1 0.1
151.0721
167.7458
306.7126
413.2608
439.4025
778.8651
0.0 0.1 0.2
225.1396
246.358
375.9583
399.2368
464.7849
725.0939
0.0 0.1 0.3
298.7055
315.9115
319.5842
337.0016
605.6214
634.4628
0.0 0.1 0.4
243.831
264.8935
362.8239
385.423
503.0176
706.2285
0.0 0.1 -0.5
168.6492
188.156
343.9898
406.4421
431.9956
768.7593
0.0 0.2 0.0
196.7208
205.3257
422.5023
459.5151
544.6616
766.574
0.0 0.2 0.1
231.2119
234.1608
449.1366
461.2746
528.2723
755.9495
0.0 0.2 0.2
288.2266
309.3758
417.057
477.8167
552.1878
722.6486
0.0 0.2 0.3
350.8546
365.6494
388.8215
408.0067
642.9194
662.3262
0.0 0.2 0.4
303.8822
329.2122
405.8314
462.1345
575.8098
710.3589
0.0 0.2 -0.5
243.7408
251.3345
443.2254
479.9757
519.7156
749.9304
0.0 0.3 0.0
275.9846
281.8989
496.5167
561.789
638.2754
720.138
0.0 0.3 0.1
296.5246
297.2849
487.2295
580.6366
612.6267
732.0979
0.0 0.3 0.2
345.1901
346.3809
459.0869
527.7598
651.5836
736.2091
0.0 0.3 0.3
400.8789
413.9948
422.4578
443.5623
703.4892
713.366
0.0 0.3 0.4
359.0435
363.3416
449.2883
507.6417
665.7277
733.1959
0.0 0.3 -0.5
306.3035
306.8766
482.0002
577.2072
613.5726
735.1726
0.0 0.4 0.0
318.4435
353.855
524.7806
643.1556
665.7862
706.473
0.0 0.4 0.1
336.7199
354.6668
515.8268
609.2134
674.8745
739.5807
0.0 0.4 0.2
374.6158
381.5269
489.0902
533.2588
719.8395
764.963
0.0 0.4 0.3
431.5257
434.0797
446.4924
450.4519
755.6536
761.0434
0.0 0.4 0.4
385.2638
394.5353
479.8357
512.5713
730.4712
766.792
0.0 0.4 -0.5
346.0965
356.7314
510.8251
591.9265
685.2628
748.2881
0.0 -0.5 0.0
337.5035
407.1272
540.6225
617.6313
680.973
741.3816
0.0 -0.5 0.1
354.8537
397.7452
531.5568
586.4096
707.2313
761.5197
0.0 -0.5 0.2
395.6836
398.1257
504.6567
521.6645
752.4562
786.7579
0.0 -0.5 0.3
433.4021
448.9825
449.8306
462.1476
783.7707
787.8079
0.0 -0.5 0.4
400.8137
410.8455
495.3897
503.2917
762.2262
789.6443
0.0 -0.5 -0.5
363.8292
394.8692
526.5073
572.3213
718.4387
769.1138
0.1 0.1 0.0
141.8105
155.1993
311.2515
440.3085
486.4342
786.7899
0.1 0.1 0.1
186.8979
195.5435
367.6864
429.535
472.5795
770.6906
0.1 0.1 0.2
252.0135
274.6848
393.2019
430.5525
495.087
723.2126
0.1 0.1 0.3
319.6888
333.8239
352.2199
367.8485
616.9886
642.5684
0.1 0.1 0.4
269.1675
293.4114
381.1571
416.4372
527.4614
706.4505
0.1 0.1 -0.5
201.7714
215.5163
394.7215
424.1342
464.7953
761.8084
0.1 0.2 0.0
218.0196
246.1996
424.3339
506.5208
556.5382
756.7165
0.1 0.2 0.1
243.9963
268.4866
446.9105
513.1755
537.995
749.0675
0.1 0.2 0.2
306.9441
319.1739
441.2196
486.0803
574.4816
722.678
0.1 0.2 0.3
367.4804
369.7086
413.132
420.8821
653.8818
670.9087
0.1 0.2 0.4
324.6663
333.1733
433.1498
469.7699
594.9463
712.3837
0.1 0.2 -0.5
257.324
279.4873
451.2677
521.4159
528.6487
744.5285
0.1 0.3 0.0
295.1156
319.4601
491.3114
593.1296
636.8114
711.0615
0.1 0.3 0.1
298.9178
340.0562
497.6933
587.3002
621.4542
726.457
0.1 0.3 0.2
332.2916
383.7028
484.7486
525.7482
659.9386
734.6424
0.1 0.3 0.3
392.6311
404.7578
460.526
467.9577
706.6847
715.5729
0.1 0.3 0.4
345.9531
394.9097
476.4993
508.8648
672.5082
732.5669
0.1 0.3 -0.5
303.695
349.6907
497.6491
575.3307
626.7635
730.6045
0.1 0.4 0.0
363.3668
363.5313
534.3131
647.3867
657.2817
703.0922
0.1 0.4 0.1
348.4187
388.9249
531.3366
602.581
678.8071
732.3972
0.1 0.4 0.2
355.8201
427.8164
498.6358
547.8393
718.172
758.3531
0.1 0.4 0.3
401.1883
416.0482
491.8891
502.365
751.2321
756.1266
0.1 0.4 0.4
363.7115
435.8876
487.0676
536.1791
727.9317
760.5516
0.1 0.4 -0.5
347.1126
397.7577
527.0175
588.0513
687.6017
741.0207
0.2 0.2 0.0
268.3863
285.3593
478.2103
556.2654
615.0048
728.7432
0.2 0.2 0.1
280.2808
308.0192
481.6731
567.0845
594.5303
733.7195
0.2 0.2 0.2
326.1595
357.0846
463.995
518.3828
633.3107
729.9168
0.2 0.2 0.3
388.6197
397.1901
438.1023
448.211
689.6187
700.894
0.2 0.2 0.4
341.7483
370.6158
455.5903
500.2607
648.2347
725.2682
0.2 0.2 -0.5
288.4697
318.6968
480.15
563.4327
595.5348
734.5905
0.2 0.3 0.0
328.9149
374.1134
506.7372
636.6153
653.5553
685.7905
0.2 0.3 0.1
323.3139
389.5791
522.1715
592.8168
656.3887
717.4035
0.2 0.3 0.2
338.7475
422.0043
516.4906
531.5529
686.9922
738.0095
0.2 0.3 0.3
391.2967
406.4569
497.8074
504.366
722.9149
729.272
0.2 0.3 0.4
348.9217
427.2025
503.9923
525.2332
696.7297
738.5774
0.2 0.3 -0.5
323.6034
397.1692
526.0655
575.695
661.7208
725.0537
0.2 0.4 0.0
388.3995
442.7027
547.0831
634.1278
660.0623
701.4315
0.2 0.4 0.1
369.2924
454.5083
563.1005
582.1083
697.9947
713.5363
0.2 0.4 0.2
357.9036
459.0058
528.6317
581.0251
721.2921
744.0403
0.2 0.4 0.3
389.697
403.5196
551.5481
559.4711
744.9288
748.1311
0.2 0.4 0.4
361.5399
448.3704
530.257
577.9776
728.0671
747.7825
0.2 0.4 -0.5
363.4567
459.318
556.3686
578.6604
703.238
722.453
0.3 0.3 0.0
371.2214
374.3093
539.0746
650.2915
651.7911
707.3214
0.3 0.3 0.1
354.2236
399.2306
536.0191
600.5438
682.8252
733.2885
0.3 0.3 0.2
357.2797
436.1153
499.8988
552.9104
721.7577
759.3761
0.3 0.3 0.3
399.6439
414.4079
500.7102
511.0559
753.6718
758.2662
0.3 0.3 0.4
364.1959
441.9123
489.494
542.6922
731.2504
761.8209
0.3 0.3 -0.5
351.8505
407.9065
531.0404
587.3046
691.7281
741.7161

weight
   0.0000000   0.0000000   0.0000000   0.0020000   
   0.0000000   0.0000000   0.1000000   0.0040000   
   0.0000000   0.0000000   0.2000000   0.0040000   
   0.0000000   0.0000000   0.3000000   0.0040000   
   0.0000000   0.0000000   0.4000000   0.0040000   
   0.0000000   0.0000000  -0.5000000   0.0020000   
   0.0000000   0.1000000   0.0000000   0.0120000   
   0.0000000   0.1000000   0.1000000   0.0240000   
   0.0000000   0.1000000   0.2000000   0.0240000   
   0.0000000   0.1000000   0.3000000   0.0240000   
   0.0000000   0.1000000   0.4000000   0.0240000   
   0.0000000   0.1000000  -0.5000000   0.0120000   
   0.0000000   0.2000000   0.0000000   0.0120000   
   0.0000000   0.2000000   0.1000000   0.0240000   
   0.0000000   0.2000000   0.2000000   0.0240000   
   0.0000000   0.2000000   0.3000000   0.0240000   
   0.0000000   0.2000000   0.4000000   0.0240000   
   0.0000000   0.2000000  -0.5000000   0.0120000   
   0.0000000   0.3000000   0.0000000   0.0120000   
   0.0000000   0.3000000   0.1000000   0.0240000   
   0.0000000   0.3000000   0.2000000   0.0240000   
   0.0000000   0.3000000   0.3000000   0.0240000   
   0.0000000   0.3000000   0.4000000   0.0240000   
   0.0000000   0.3000000  -0.5000000   0.0120000   
   0.0000000   0.4000000   0.0000000   0.0120000   
   0.0000000   0.4000000   0.1000000   0.0240000   
   0.0000000   0.4000000   0.2000000   0.0240000   
   0.0000000   0.4000000   0.3000000   0.0240000   
   0.0000000   0.4000000   0.4000000   0.0240000   
   0.0000000   0.4000000  -0.5000000   0.0120000   
   0.0000000  -0.5000000   0.0000000   0.0060000   
   0.0000000  -0.5000000   0.1000000   0.0120000   
   0.0000000  -0.5000000   0.2000000   0.0120000   
   0.0000000  -0.5000000   0.3000000   0.0120000   
   0.0000000  -0.5000000   0.4000000   0.0120000   
   0.0000000  -0.5000000  -0.5000000   0.0060000   
   0.1000000   0.1000000   0.0000000   0.0120000   
   0.1000000   0.1000000   0.1000000   0.0240000   
   0.1000000   0.1000000   0.2000000   0.0240000   
   0.1000000   0.1000000   0.3000000   0.0240000   
   0.1000000   0.1000000   0.4000000   0.0240000   
   0.1000000   0.1000000  -0.5000000   0.0120000   
   0.1000000   0.2000000   0.0000000   0.0240000   
   0.1000000   0.2000000   0.1000000   0.0480000   
   0.1000000   0.2000000   0.2000000   0.0480000   
   0.1000000   0.2000000   0.3000000   0.0480000   
   0.1000000   0.2000000   0.4000000   0.0480000   
   0.1000000   0.2000000  -0.5000000   0.0240000   
   0.1000000   0.3000000   0.0000000   0.0240000   
   0.1000000   0.3000000   0.1000000   0.0480000   
   0.1000000   0.3000000   0.2000000   0.0480000   
   0.1000000   0.3000000   0.3000000   0.0480000   
   0.1000000   0.3000000   0.4000000   0.0480000   
   0.1000000   0.3000000  -0.5000000   0.0240000   
   0.1000000   0.4000000   0.0000000   0.0240000   
   0.1000000   0.4000000   0.1000000   0.0480000   
   0.1000000   0.4000000   0.2000000   0.0480000   
   0.1000000   0.4000000   0.3000000   0.0480000   
   0.1000000   0.4000000   0.4000000   0.0480000   
   0.1000000   0.4000000  -0.5000000   0.0240000   
   0.2000000   0.2000000   0.0000000   0.0120000   
   0.2000000   0.2000000   0.1000000   0.0240000   
   0.2000000   0.2000000   0.2000000   0.0240000   
   0.2000000   0.2000000   0.3000000   0.0240000   
   0.2000000   0.2000000   0.4000000   0.0240000   
   0.2000000   0.2000000  -0.5000000   0.0120000   
   0.2000000   0.3000000   0.0000000   0.0240000   
   0.2000000   0.3000000   0.1000000   0.0480000   
   0.2000000   0.3000000   0.2000000   0.0480000   
   0.2000000   0.3000000   0.3000000   0.0480000   
   0.2000000   0.3000000   0.4000000   0.0480000   
   0.2000000   0.3000000  -0.5000000   0.0240000   
   0.2000000   0.4000000   0.0000000   0.0120000   
   0.2000000   0.4000000   0.1000000   0.0240000   
   0.2000000   0.4000000   0.2000000   0.0240000   
   0.2000000   0.4000000   0.3000000   0.0240000   
   0.2000000   0.4000000   0.4000000   0.0240000   
   0.2000000   0.4000000  -0.5000000   0.0120000   
   0.3000000   0.3000000   0.0000000   0.0120000   
   0.3000000   0.3000000   0.1000000   0.0240000   
   0.3000000   0.3000000   0.2000000   0.0240000   
   0.3000000   0.3000000   0.3000000   0.0240000   
   0.3000000   0.3000000   0.4000000   0.0240000   
   0.3000000   0.3000000  -0.5000000   0.0120000   