Number of volumes (nv), q-vectors (nq), normal mode (np), formula units(nm)
10 84 6 1
P = 162.1500	V = 138.4189	E = -655.35167249000000	S_el = 0.00003462347833
0.0000000 0.0000000 0.0000000
0.0000
0.0000
0.0000
181.1054
181.1054
327.3284
0.0000000 0.0000000 0.1000000
43.9696
43.9696
99.5362
175.0702
175.0702
322.0953
0.0000000 0.0000000 0.2000000
85.0381
85.0381
157.0833
157.0833
186.0372
302.8252
0.0000000 0.0000000 0.3000000
121.5447
121.5447
128.7863
128.7863
252.2021
263.7345
0.0000000 0.0000000 0.4000000
93.4582
93.4582
151.6571
151.6571
202.4178
296.0990
0.0000000 0.0000000 -0.5000000
53.3168
53.3168
119.9789
172.1305
172.1305
319.2992
0.0000000 0.1000000 0.0000000
44.5577
48.8310
95.6013
187.6754
199.7634
324.1007
0.0000000 0.1000000 0.1000000
66.2278
77.6389
128.0328
182.1727
194.0370
319.1480
0.0000000 0.1000000 0.2000000
99.3245
112.0326
165.5145
177.0835
195.9420
301.2116
0.0000000 0.1000000 0.3000000
132.3884
139.1096
144.2118
150.8251
254.8645
265.3523
0.0000000 0.1000000 0.4000000
106.7844
119.2657
160.4505
172.0070
210.2544
295.0048
0.0000000 0.1000000 -0.5000000
73.0477
85.6198
142.1973
179.4717
191.2566
316.5226
0.0000000 0.2000000 0.0000000
86.4394
91.8411
177.4349
202.8196
239.4470
314.8562
0.0000000 0.2000000 0.1000000
101.9463
107.3529
193.5207
197.9956
233.1475
311.4536
0.0000000 0.2000000 0.2000000
127.9345
142.8136
184.3935
214.3571
230.1229
299.1348
0.0000000 0.2000000 0.3000000
155.8884
161.6799
178.4050
185.6877
267.6765
274.7092
0.0000000 0.2000000 0.4000000
134.1285
150.8376
180.0629
208.8652
238.8199
294.8806
0.0000000 0.2000000 -0.5000000
107.1492
114.5372
196.1423
200.0865
230.1241
309.6492
0.0000000 0.3000000 0.0000000
120.8889
127.1171
218.3178
236.7147
276.3310
300.8578
0.0000000 0.3000000 0.1000000
130.1566
134.7396
214.6714
247.4353
264.0320
304.6802
0.0000000 0.3000000 0.2000000
153.3778
157.0057
202.9900
235.1487
271.6820
305.0492
0.0000000 0.3000000 0.3000000
178.3225
183.4120
191.4960
199.6649
292.2992
295.7171
0.0000000 0.3000000 0.4000000
158.9939
163.8235
199.3089
227.8548
276.7337
303.8951
0.0000000 0.3000000 -0.5000000
134.2704
138.5587
212.8347
251.3292
259.6304
305.4405
0.0000000 0.4000000 0.0000000
138.7953
160.5211
229.2405
272.4176
284.2160
299.3215
0.0000000 0.4000000 0.1000000
147.9184
158.6322
225.9537
264.6158
282.9216
309.9784
0.0000000 0.4000000 0.2000000
165.3603
169.6369
215.5935
233.3059
300.3309
317.1421
0.0000000 0.4000000 0.3000000
190.4199
193.4877
197.3956
198.5351
313.2540
314.9747
0.0000000 0.4000000 0.4000000
169.6614
174.7163
212.3156
225.6267
303.7951
317.4797
0.0000000 0.4000000 -0.5000000
151.9386
158.7513
224.3181
258.4653
286.5893
312.2810
0.0000000 -0.5000000 0.0000000
146.5196
184.7712
234.7849
268.9782
289.4150
308.7508
0.0000000 -0.5000000 0.1000000
155.2037
177.0009
231.5750
254.5663
299.0740
315.9633
0.0000000 -0.5000000 0.2000000
171.8787
176.3978
221.7426
225.2870
314.3955
323.8939
0.0000000 -0.5000000 0.3000000
187.5608
193.4598
200.1172
204.7147
323.5755
324.5141
0.0000000 -0.5000000 0.4000000
173.4013
181.7172
217.8164
218.9452
317.0789
324.7146
0.0000000 -0.5000000 -0.5000000
159.1045
174.6736
230.0069
248.8988
302.5852
318.1477
0.1000000 0.1000000 0.0000000
62.8550
68.9160
130.6035
194.2927
214.6794
320.9469
0.1000000 0.1000000 0.1000000
82.5779
90.4101
153.4150
189.3130
208.9690
316.3740
0.1000000 0.1000000 0.2000000
111.6579
126.3845
173.6197
192.0857
207.1694
300.0149
0.1000000 0.1000000 0.3000000
141.9420
147.7666
160.0415
166.1883
258.3803
267.7307
0.1000000 0.1000000 0.4000000
118.4559
133.7080
168.9853
187.0524
219.3160
294.3938
0.1000000 0.1000000 -0.5000000
88.3785
98.7159
163.6896
186.9124
206.2015
313.9637
0.1000000 0.2000000 0.0000000
97.7730
109.7243
181.6064
218.2640
244.6521
311.9163
0.1000000 0.2000000 0.1000000
111.2035
120.0015
194.3364
217.5959
237.7312
309.2319
0.1000000 0.2000000 0.2000000
140.0524
143.8427
195.8943
217.9463
238.9567
299.0036
0.1000000 0.2000000 0.3000000
164.6243
166.5575
186.5758
190.7008
271.7560
277.9120
0.1000000 0.2000000 0.4000000
146.5755
149.9405
192.8946
212.2359
246.4600
295.3805
0.1000000 0.2000000 -0.5000000
116.8533
124.4799
197.9051
218.8337
234.4913
307.7719
0.1000000 0.3000000 0.0000000
133.5264
141.8938
216.5729
249.3062
275.2943
298.2238
0.1000000 0.3000000 0.1000000
134.8553
151.8995
220.2937
253.4741
262.9482
303.0927
0.1000000 0.3000000 0.2000000
150.5294
171.9266
214.9614
233.6106
274.3192
304.6321
0.1000000 0.3000000 0.3000000
177.9706
182.5205
204.7875
207.8049
293.3279
296.4723
0.1000000 0.3000000 0.4000000
156.1203
176.4699
211.9230
227.1955
278.9207
303.7282
0.1000000 0.3000000 -0.5000000
136.7731
155.8198
220.4643
253.2306
261.0766
304.1215
0.1000000 0.4000000 0.0000000
160.2455
165.5871
235.6350
273.6290
281.8287
296.8172
0.1000000 0.4000000 0.1000000
156.1845
172.8752
234.4095
262.2635
283.2549
307.5327
0.1000000 0.4000000 0.2000000
158.4571
190.5622
220.2002
238.9412
299.1824
315.0281
0.1000000 0.4000000 0.3000000
179.3114
185.4397
216.2402
220.2169
311.5950
313.2332
0.1000000 0.4000000 0.4000000
161.5155
194.2122
215.1952
234.6971
302.4967
315.4470
0.1000000 0.4000000 -0.5000000
155.3866
176.1948
232.8897
256.8749
286.4495
309.8973
0.2000000 0.2000000 0.0000000
120.1202
127.1959
209.6836
234.8623
267.4903
303.5087
0.2000000 0.2000000 0.1000000
126.2098
137.6778
212.7902
240.4907
257.6330
304.7269
0.2000000 0.2000000 0.2000000
147.9070
160.2558
205.7017
231.5675
263.5531
302.2179
0.2000000 0.2000000 0.3000000
175.1701
178.4522
196.4295
201.1086
286.3677
290.3416
0.2000000 0.2000000 0.4000000
154.1511
165.7634
202.5746
224.9505
268.9762
300.5006
0.2000000 0.2000000 -0.5000000
129.6809
142.0024
212.5250
243.8048
253.5536
304.7900
0.2000000 0.3000000 0.0000000
149.7751
166.9436
224.4007
267.1122
280.0438
290.7086
0.2000000 0.3000000 0.1000000
146.2608
174.5164
231.6558
259.6088
271.4754
301.4251
0.2000000 0.3000000 0.2000000
152.8006
190.0097
228.2663
234.7421
284.7819
306.8560
0.2000000 0.3000000 0.3000000
177.2533
183.4705
219.6916
222.3582
299.8663
302.2098
0.2000000 0.3000000 0.4000000
156.9252
192.4872
223.1064
232.2099
288.4758
306.7142
0.2000000 0.3000000 -0.5000000
146.0987
177.7009
233.1898
253.7126
273.3622
303.4249
0.2000000 0.4000000 0.0000000
178.2302
196.4849
243.2906
275.0295
283.3555
290.3365
0.2000000 0.4000000 0.1000000
167.4688
202.8763
249.1402
255.1632
288.6976
301.8923
0.2000000 0.4000000 0.2000000
159.6803
207.2022
229.9243
254.3771
299.1933
311.1345
0.2000000 0.4000000 0.3000000
173.9794
179.7551
241.0456
244.1205
309.5252
310.8361
0.2000000 0.4000000 0.4000000
160.8106
202.4796
230.7826
252.8834
301.8909
311.8957
0.2000000 0.4000000 -0.5000000
164.4079
205.3104
245.0500
254.7074
290.3898
304.6538
0.3000000 0.3000000 0.0000000
164.6229
169.8364
237.9059
275.7179
279.7301
297.7684
0.3000000 0.3000000 0.1000000
159.0331
177.3579
236.6207
261.3053
285.1677
307.7978
0.3000000 0.3000000 0.2000000
158.9697
194.4036
220.3595
240.8614
300.7322
315.4952
0.3000000 0.3000000 0.3000000
178.3711
184.4696
219.8239
223.7296
312.6073
314.1335
0.3000000 0.3000000 0.4000000
161.5861
197.3296
215.5247
237.1928
303.9302
315.9961
0.3000000 0.3000000 -0.5000000
157.7083
180.6639
234.8414
256.2703
288.3350
310.1679
P = 360.3500	V = 130.1411	E = -655.35286398000000	S_el = 0.00003203077000
0.0000000 0.0000000 0.0000000
0.0000
0.0000
0.0000
202.4218
202.4218
369.6556
0.0000000 0.0000000 0.1000000
51.4071
51.4071
110.0891
195.8160
195.8160
363.3742
0.0000000 0.0000000 0.2000000
97.0752
97.0752
175.8395
175.8395
207.3705
341.0702
0.0000000 0.0000000 0.3000000
136.5227
136.5227
144.6026
144.6026
282.9267
296.4367
0.0000000 0.0000000 0.4000000
106.4131
106.4131
169.6497
169.6497
226.4479
333.1779
0.0000000 0.0000000 -0.5000000
62.2767
62.2767
133.4566
192.4824
192.4824
359.9930
0.0000000 0.1000000 0.0000000
48.8890
54.4653
107.8755
209.6906
223.4436
365.9218
0.0000000 0.1000000 0.1000000
75.3521
85.6709
143.9207
203.6417
217.0772
359.9936
0.0000000 0.1000000 0.2000000
112.4198
125.5187
185.1386
198.0610
219.3684
339.2791
0.0000000 0.1000000 0.3000000
148.4377
155.9695
161.2776
168.7777
286.2329
298.4669
0.0000000 0.1000000 0.4000000
120.7714
133.8291
179.3671
192.2258
235.9125
332.0155
0.0000000 0.1000000 -0.5000000
83.3476
95.2691
159.8751
200.5725
213.8849
356.8265
0.0000000 0.2000000 0.0000000
95.9782
101.5979
200.2891
226.5923
268.4609
355.1576
0.0000000 0.2000000 0.1000000
114.5725
117.6419
218.3964
221.2265
261.2074
351.1432
0.0000000 0.2000000 0.2000000
143.5332
157.9962
206.0859
239.5539
259.3888
337.1225
0.0000000 0.2000000 0.3000000
174.3672
180.9184
198.5366
206.9971
301.5517
309.6632
0.0000000 0.2000000 0.4000000
150.5430
167.3842
201.1502
233.1494
269.3507
332.2096
0.0000000 0.2000000 -0.5000000
120.5802
125.9238
219.0953
225.9418
257.6378
348.9990
0.0000000 0.3000000 0.0000000
135.8276
139.5386
244.2000
267.3877
310.9690
338.7228
0.0000000 0.3000000 0.1000000
145.8267
148.3552
240.0810
279.1954
296.6132
343.3947
0.0000000 0.3000000 0.2000000
171.5279
173.7055
226.9631
262.8655
306.8603
344.2547
0.0000000 0.3000000 0.3000000
199.2712
205.0872
212.9349
222.4405
330.1244
334.0481
0.0000000 0.3000000 0.4000000
177.9199
181.6597
222.7363
254.3207
312.6977
343.0040
0.0000000 0.3000000 -0.5000000
150.4123
152.8734
237.9556
283.0076
291.9807
344.3710
0.0000000 0.4000000 0.0000000
155.9587
177.0149
256.9648
308.0318
319.1089
338.2712
0.0000000 0.4000000 0.1000000
165.8758
175.2571
253.2083
296.8136
319.9744
350.1540
0.0000000 0.4000000 0.2000000
183.6819
189.4537
241.3803
261.0112
339.7532
358.6888
0.0000000 0.4000000 0.3000000
212.3960
215.9441
220.6969
221.5775
354.5698
356.5564
0.0000000 0.4000000 0.4000000
188.5225
195.4566
237.5526
252.0588
343.8225
359.1734
0.0000000 0.4000000 -0.5000000
170.3777
175.5360
251.2870
289.5760
324.2204
352.8984
0.0000000 -0.5000000 0.0000000
164.6715
204.4199
263.6763
301.1975
327.5236
350.1338
0.0000000 -0.5000000 0.1000000
174.1840
196.1442
259.9910
285.1622
338.4229
358.0519
0.0000000 -0.5000000 0.2000000
191.1361
197.4077
248.5911
252.1547
356.1128
367.2284
0.0000000 -0.5000000 0.3000000
209.3078
216.1965
223.7390
229.0754
366.9620
368.0891
0.0000000 -0.5000000 0.4000000
193.0602
203.4116
243.9209
244.8579
359.3424
368.2426
0.0000000 -0.5000000 -0.5000000
178.5657
193.6342
258.1274
278.6217
342.5326
360.5905
0.1000000 0.1000000 0.0000000
68.7589
77.1163
147.3942
217.0857
240.3072
362.2599
0.1000000 0.1000000 0.1000000
93.2028
99.1172
172.9911
211.6088
233.8696
356.8061
0.1000000 0.1000000 0.2000000
125.7859
140.5730
194.0944
214.7520
232.7313
337.9757
0.1000000 0.1000000 0.3000000
158.9546
165.4629
178.6094
185.6339
290.5114
301.3708
0.1000000 0.1000000 0.4000000
133.4410
149.1167
188.8242
208.9282
246.6827
331.4206
0.1000000 0.1000000 -0.5000000
99.9802
108.8630
184.6210
208.8992
230.6563
353.9085
0.1000000 0.2000000 0.0000000
106.9213
122.9677
204.3296
244.8865
274.4233
351.7053
0.1000000 0.2000000 0.1000000
122.0161
134.3676
217.8654
244.8595
266.3942
348.5757
0.1000000 0.2000000 0.2000000
155.8884
159.9815
218.7533
243.5987
269.6165
337.0459
0.1000000 0.2000000 0.3000000
183.8692
185.7966
208.0225
212.6426
306.3662
313.4459
0.1000000 0.2000000 0.4000000
163.7722
166.6925
215.3593
236.9057
278.2034
332.8883
0.1000000 0.2000000 -0.5000000
128.6983
139.3775
221.4472
246.8037
262.5208
346.8605
0.1000000 0.3000000 0.0000000
146.7495
158.9483
242.3618
281.6812
309.8733
335.5719
0.1000000 0.3000000 0.1000000
148.6371
169.7148
246.1998
285.8889
295.8676
341.5530
0.1000000 0.3000000 0.2000000
166.5527
191.9423
240.2671
261.1970
310.0631
343.8249
0.1000000 0.3000000 0.3000000
197.9162
203.3173
228.7723
232.1974
331.4010
334.9943
0.1000000 0.3000000 0.4000000
173.0927
197.1014
236.7758
253.7283
315.3490
342.8765
0.1000000 0.3000000 -0.5000000
150.8931
174.1733
246.3570
284.2539
294.8384
342.8662
0.1000000 0.4000000 0.0000000
179.6833
182.6884
263.8819
309.6574
316.1935
335.5059
0.1000000 0.4000000 0.1000000
173.1663
192.8989
262.4882
294.0827
320.6064
347.3129
0.1000000 0.4000000 0.2000000
175.6223
212.9083
246.2601
267.7196
338.5447
356.2356
0.1000000 0.4000000 0.3000000
199.3512
206.4602
242.0955
246.6813
352.6785
354.5574
0.1000000 0.4000000 0.4000000
179.2250
216.9733
240.5006
262.8510
342.4077
356.8203
0.1000000 0.4000000 -0.5000000
172.1046
196.8877
260.7094
287.7699
324.2838
350.1274
0.2000000 0.2000000 0.0000000
132.6650
141.7139
234.8586
264.8796
300.7394
341.8228
0.2000000 0.2000000 0.1000000
139.3267
153.5276
237.8258
271.5119
289.2280
343.4006
0.2000000 0.2000000 0.2000000
164.0227
178.6164
229.8600
258.8361
297.6900
340.9403
0.2000000 0.2000000 0.3000000
195.2731
199.0234
219.0621
224.3184
323.3128
327.8678
0.2000000 0.2000000 0.4000000
171.3538
184.8634
226.2798
251.0928
303.9221
339.0338
0.2000000 0.2000000 -0.5000000
143.3394
158.4752
237.4500
274.9428
284.7582
343.5452
0.2000000 0.3000000 0.0000000
164.8808
186.8737
251.0921
302.4695
315.4295
326.6346
0.2000000 0.3000000 0.1000000
161.1968
195.1136
258.9355
291.3401
307.4056
339.7055
0.2000000 0.3000000 0.2000000
168.9230
212.1024
255.3216
262.6190
322.2255
346.5135
0.2000000 0.3000000 0.3000000
196.7796
204.0188
245.8960
248.9475
339.0612
341.7167
0.2000000 0.3000000 0.4000000
173.7713
214.7897
249.3976
259.7701
326.4413
346.4665
0.2000000 0.3000000 -0.5000000
161.0948
198.6950
260.6714
284.2697
309.6265
342.1831
0.2000000 0.4000000 0.0000000
196.8642
220.1148
272.4117
308.0007
320.4539
328.6692
0.2000000 0.4000000 0.1000000
185.0690
227.0180
278.9057
285.8602
327.4057
340.5755
0.2000000 0.4000000 0.2000000
176.6933
230.8480
257.9027
285.3230
338.8332
351.6238
0.2000000 0.4000000 0.3000000
193.0818
199.7740
270.4657
274.0076
350.3020
351.7637
0.2000000 0.4000000 0.4000000
178.0984
225.2658
258.9842
283.6856
341.8878
352.6319
0.2000000 0.4000000 -0.5000000
181.6299
229.6902
274.2376
285.3149
329.3002
343.8890
0.3000000 0.3000000 0.0000000
184.5626
187.4687
266.4558
312.0394
313.7092
336.7252
0.3000000 0.3000000 0.1000000
176.2485
198.0400
264.9866
292.9593
322.8094
347.7074
0.3000000 0.3000000 0.2000000
176.1713
217.2109
246.4392
269.9944
340.3436
356.8253
0.3000000 0.3000000 0.3000000
198.2683
205.3378
246.2109
250.7197
353.8790
355.6300
0.3000000 0.3000000 0.4000000
179.2697
220.3680
240.9684
265.7836
344.0738
357.5035
0.3000000 0.3000000 -0.5000000
174.6234
201.9734
262.8929
287.1028
326.4542
350.5144
P = 657.0200	V = 121.3918	E = -655.34005486000000	S_el = 0.00002921845333
0.0000000 0.0000000 0.0000000
0.0000
0.0000
0.0000
227.2785
227.2785
421.0456
0.0000000 0.0000000 0.1000000
57.9755
57.9755
123.9680
219.8970
219.8970
413.5140
0.0000000 0.0000000 0.2000000
109.1097
109.1097
197.5016
197.5016
234.2257
387.4864
0.0000000 0.0000000 0.3000000
153.1911
153.1911
162.4761
162.4761
320.4569
336.2979
0.0000000 0.0000000 0.4000000
119.8086
119.8086
190.3712
190.3712
256.4824
378.1426
0.0000000 0.0000000 -0.5000000
70.4712
70.4712
151.0329
216.0601
216.0601
409.3986
0.0000000 0.1000000 0.0000000
54.8649
60.8541
122.2069
235.4234
251.1496
416.6754
0.0000000 0.1000000 0.1000000
84.5851
95.3382
163.1516
228.6427
243.9391
409.5982
0.0000000 0.1000000 0.2000000
126.2069
140.4012
207.8873
222.4126
248.3635
385.5008
0.0000000 0.1000000 0.3000000
166.5367
175.1937
180.7053
189.3741
324.4867
338.8022
0.0000000 0.1000000 0.4000000
135.8022
150.0157
201.2426
215.6457
267.6150
376.9244
0.0000000 0.1000000 -0.5000000
93.8089
106.4190
181.5975
225.1035
240.2219
405.7584
0.0000000 0.2000000 0.0000000
107.9806
113.3570
227.0103
254.4806
302.5213
404.0354
0.0000000 0.2000000 0.1000000
128.5281
131.1213
247.0645
249.0651
294.1119
399.3090
0.0000000 0.2000000 0.2000000
160.9791
176.3739
231.3922
269.0865
294.4861
383.1899
0.0000000 0.2000000 0.3000000
195.6188
203.1611
222.2237
232.0551
342.4832
351.9539
0.0000000 0.2000000 0.4000000
169.0592
187.2326
225.7064
261.5871
306.1010
377.4392
0.0000000 0.2000000 -0.5000000
135.3676
140.6227
245.9359
256.5596
289.8725
396.7447
0.0000000 0.3000000 0.0000000
152.4975
156.2260
274.6164
303.2881
351.6420
384.6574
0.0000000 0.3000000 0.1000000
163.8688
165.7414
269.9088
316.5381
335.1886
390.0923
0.0000000 0.3000000 0.2000000
192.4369
194.4424
255.0284
295.8619
348.6411
391.3324
0.0000000 0.3000000 0.3000000
223.6258
230.3478
238.8379
249.8769
375.2859
379.8759
0.0000000 0.3000000 0.4000000
199.7673
203.6946
250.1249
285.8577
355.4906
389.9185
0.0000000 0.3000000 -0.5000000
169.1913
170.8598
267.4200
320.0414
330.6238
391.2809
0.0000000 0.4000000 0.0000000
175.3595
198.2743
289.5706
349.6824
361.4963
384.0023
0.0000000 0.4000000 0.1000000
186.3894
196.4789
285.2098
335.5059
363.6156
397.8291
0.0000000 0.4000000 0.2000000
206.4212
212.6052
271.5716
294.4817
386.3981
408.0703
0.0000000 0.4000000 0.3000000
239.2292
242.2395
248.1699
249.4898
403.5869
405.9193
0.0000000 0.4000000 0.4000000
212.0259
219.5815
267.0669
284.0239
391.2373
408.7283
0.0000000 0.4000000 -0.5000000
191.5403
196.8873
282.9211
326.9614
368.6070
401.1523
0.0000000 -0.5000000 0.0000000
185.3601
229.1326
297.6769
340.4052
371.9959
398.7580
0.0000000 -0.5000000 0.1000000
195.9736
220.1602
293.3383
322.2754
384.5983
407.7443
0.0000000 -0.5000000 0.2000000
215.1893
221.8172
279.9838
284.8890
405.3369
418.5148
0.0000000 -0.5000000 0.3000000
236.1504
244.2386
251.2761
257.5449
418.2750
419.6466
0.0000000 -0.5000000 0.4000000
217.5767
228.6821
274.7908
276.0809
409.2667
419.7681
0.0000000 -0.5000000 -0.5000000
200.9871
217.4126
291.0818
314.6646
389.5065
410.7594
0.1000000 0.1000000 0.0000000
77.0586
86.2864
166.9944
243.7843
270.3406
412.3814
0.1000000 0.1000000 0.1000000
104.5111
110.2910
196.2070
237.6478
262.9721
405.8996
0.1000000 0.1000000 0.2000000
141.1232
156.9652
217.9078
241.1560
263.9057
384.0710
0.1000000 0.1000000 0.3000000
178.3170
185.7634
200.0402
208.1570
329.5958
342.2822
0.1000000 0.1000000 0.4000000
149.9348
166.8719
211.8447
234.3672
280.1268
376.3535
0.1000000 0.1000000 -0.5000000
112.3248
121.4405
209.7054
234.5499
259.1962
402.4012
0.1000000 0.2000000 0.0000000
119.6725
137.7890
230.7618
276.2751
309.3408
399.9617
0.1000000 0.2000000 0.1000000
136.1581
150.5220
245.4569
277.0375
300.0005
396.3046
0.1000000 0.2000000 0.2000000
174.3863
178.9628
245.6080
273.7145
306.2476
383.1307
0.1000000 0.2000000 0.3000000
206.1489
208.2007
233.3009
238.5249
348.0805
356.3419
0.1000000 0.2000000 0.4000000
183.6441
186.5688
241.7134
265.8602
316.2684
378.2812
0.1000000 0.2000000 -0.5000000
143.7847
156.2542
249.1251
279.9118
295.3257
394.2683
0.1000000 0.3000000 0.0000000
164.2751
178.3289
272.5255
319.7267
350.4225
380.8948
0.1000000 0.3000000 0.1000000
166.2637
190.3014
276.6858
323.8095
335.0338
387.9042
0.1000000 0.3000000 0.2000000
186.3017
215.2540
270.0759
294.0328
352.4897
390.8484
0.1000000 0.3000000 0.3000000
221.6700
227.9170
257.2355
261.1840
376.8329
381.0211
0.1000000 0.3000000 0.4000000
193.8590
221.1937
266.0597
285.3188
358.6665
389.8037
0.1000000 0.3000000 -0.5000000
168.8194
195.4312
276.8486
320.6945
334.9448
389.5123
0.1000000 0.4000000 0.0000000
201.9606
204.5364
297.0385
351.7937
357.9610
380.9351
0.1000000 0.4000000 0.1000000
194.0505
216.6247
295.5004
332.2646
364.6237
394.5144
0.1000000 0.4000000 0.2000000
196.8844
239.1507
277.2066
302.0761
385.1191
405.2058
0.1000000 0.4000000 0.3000000
223.6796
231.8531
272.6890
278.0195
401.4169
403.6094
0.1000000 0.4000000 0.4000000
201.0980
243.7461
270.6536
296.3537
389.6820
405.9875
0.1000000 0.4000000 -0.5000000
192.8035
221.2816
293.4280
324.8309
368.9183
397.9153
0.2000000 0.2000000 0.0000000
148.8186
158.6526
264.2642
300.1845
339.7570
388.2998
0.2000000 0.2000000 0.1000000
155.8931
171.9915
267.2511
308.0221
326.4741
390.1738
0.2000000 0.2000000 0.2000000
183.4992
200.1696
258.2456
291.1568
338.2698
387.5713
0.2000000 0.2000000 0.3000000
218.8419
223.1581
245.9861
252.0029
367.5189
372.8393
0.2000000 0.2000000 0.4000000
191.9782
207.3687
254.1201
282.0995
345.5580
385.3837
0.2000000 0.2000000 -0.5000000
160.4405
177.6942
266.7564
311.3387
321.9022
390.3753
0.2000000 0.3000000 0.0000000
184.5146
209.7622
282.2801
344.1686
356.7451
370.2679
0.2000000 0.3000000 0.1000000
180.2996
218.8998
291.0874
328.9616
349.7952
385.5855
0.2000000 0.3000000 0.2000000
189.0017
237.8375
287.5230
295.6675
366.6030
393.9055
0.2000000 0.3000000 0.3000000
220.3770
228.7006
276.8610
280.3478
385.7141
388.7862
0.2000000 0.3000000 0.4000000
194.6222
240.8543
280.7520
292.3608
371.5024
393.9468
0.2000000 0.3000000 -0.5000000
180.1764
222.9958
293.1161
320.5475
352.4344
388.6125
0.2000000 0.4000000 0.0000000
220.3096
247.5548
306.4355
348.1160
363.6185
373.9547
0.2000000 0.4000000 0.1000000
207.0970
255.1282
314.1415
322.4866
373.0409
386.4235
0.2000000 0.4000000 0.2000000
197.9238
258.8942
291.1127
321.8830
385.7237
399.7013
0.2000000 0.4000000 0.3000000
216.4915
224.1942
305.1367
309.2545
398.6581
400.3199
0.2000000 0.4000000 0.4000000
199.6232
252.5079
292.3118
320.0599
389.2432
401.0099
0.2000000 0.4000000 -0.5000000
203.1781
258.1077
309.1069
321.5401
375.1999
390.4530
0.3000000 0.3000000 0.0000000
207.7469
209.6150
299.9592
354.4952
355.0251
382.4809
0.3000000 0.3000000 0.1000000
197.4691
222.4720
298.3478
330.9788
367.1495
395.0185
0.3000000 0.3000000 0.2000000
197.5037
243.9939
277.5075
304.6917
387.1989
405.9092
0.3000000 0.3000000 0.3000000
222.4794
230.6125
277.4072
282.6537
402.8201
404.8637
0.3000000 0.3000000 0.4000000
201.1432
247.4923
271.3425
299.7393
391.6079
406.8005
0.3000000 0.3000000 -0.5000000
195.5886
227.0531
295.9125
324.0984
371.4118
398.3993
P = 903.6300	V = 115.9289	E = -655.32194663000000	S_el = 0.00002743892167
0.0000000 0.0000000 0.0000000
0.0000
0.0000
0.0000
244.4756
244.4756
457.5632
0.0000000 0.0000000 0.1000000
61.8556
61.8556
134.1388
236.5277
236.5277
449.1074
0.0000000 0.0000000 0.2000000
116.8064
116.8064
212.4309
212.4309
253.5315
420.3426
0.0000000 0.0000000 0.3000000
164.4800
164.4800
174.6622
174.6622
347.0688
364.5214
0.0000000 0.0000000 0.4000000
128.5272
128.5272
204.6410
204.6410
277.9784
409.9533
0.0000000 0.0000000 -0.5000000
75.4168
75.4168
163.8359
232.3351
232.3351
444.4481
0.0000000 0.1000000 0.0000000
59.3093
65.2364
132.1684
253.2490
270.3272
452.7161
0.0000000 0.1000000 0.1000000
90.5361
102.1445
176.7486
245.9343
262.5061
444.7992
0.0000000 0.1000000 0.2000000
135.2795
150.4227
223.5878
239.2077
269.0583
418.2299
0.0000000 0.1000000 0.3000000
178.8683
188.3525
193.9767
203.4881
351.5988
367.3613
0.0000000 0.1000000 0.4000000
145.7884
160.9389
216.3298
231.7864
290.1995
408.7094
0.0000000 0.1000000 -0.5000000
100.5534
114.1054
197.0371
242.0618
258.4174
440.4652
0.0000000 0.2000000 0.0000000
116.5637
121.6642
245.5892
273.8363
326.1096
438.6848
0.0000000 0.2000000 0.1000000
137.9514
140.9591
266.6780
268.7453
316.8949
433.4493
0.0000000 0.2000000 0.2000000
172.8175
189.3027
248.9000
289.5087
319.1680
415.7948
0.0000000 0.2000000 0.3000000
210.2264
218.4795
238.6336
249.3979
371.3727
381.8159
0.0000000 0.2000000 0.4000000
181.6646
201.1159
242.6856
281.2477
331.9758
409.4347
0.0000000 0.2000000 -0.5000000
145.3268
151.2662
264.5353
277.9373
312.1971
430.5803
0.0000000 0.3000000 0.0000000
163.8304
168.4727
295.7417
328.2258
379.8384
417.1539
0.0000000 0.3000000 0.1000000
176.2880
178.2961
290.6077
342.4435
362.1168
423.0469
0.0000000 0.3000000 0.2000000
206.8283
209.2148
274.4702
318.8531
377.8680
424.4771
0.0000000 0.3000000 0.3000000
240.4506
247.8095
257.0234
269.0971
406.9615
412.0411
0.0000000 0.3000000 0.4000000
214.8097
219.3329
269.0901
307.8508
385.4421
422.9276
0.0000000 0.3000000 -0.5000000
182.1659
183.7632
287.8588
345.6052
357.7662
424.3698
0.0000000 0.4000000 0.0000000
188.6416
213.5909
312.2132
378.5505
391.4254
415.7622
0.0000000 0.4000000 0.1000000
200.4845
211.7612
307.4111
362.6295
394.0032
431.1529
0.0000000 0.4000000 0.2000000
222.6342
228.6564
292.4859
318.0020
418.9361
442.6361
0.0000000 0.4000000 0.3000000
258.1517
260.5154
267.2569
269.1464
437.8386
440.4274
0.0000000 0.4000000 0.4000000
228.8027
236.2583
287.5074
306.5082
424.3267
443.4118
0.0000000 0.4000000 -0.5000000
206.0995
212.2565
304.8582
353.1773
399.5247
434.9062
0.0000000 -0.5000000 0.0000000
199.5910
246.7404
321.2822
368.0472
402.7630
432.5718
0.0000000 -0.5000000 0.1000000
210.9882
237.3238
316.4596
348.4093
416.6312
442.4035
0.0000000 -0.5000000 0.2000000
232.4102
238.6988
301.7187
308.0021
439.5920
454.3401
0.0000000 -0.5000000 0.3000000
255.2431
264.1448
270.3518
277.2630
454.0631
455.6224
0.0000000 -0.5000000 0.4000000
235.1130
246.1680
296.2584
298.0579
444.0321
455.7583
0.0000000 -0.5000000 -0.5000000
216.4474
234.4317
313.9184
340.0548
422.1222
445.7742
0.1000000 0.1000000 0.0000000
83.2729
92.5265
180.6161
262.3005
291.1318
447.9511
0.1000000 0.1000000 0.1000000
112.0019
118.3784
212.4556
255.6858
283.0974
440.7255
0.1000000 0.1000000 0.2000000
151.3762
168.2510
234.3627
259.3799
286.0077
416.7143
0.1000000 0.1000000 0.3000000
191.5620
199.6917
214.7648
223.6465
357.2681
371.2348
0.1000000 0.1000000 0.4000000
161.0264
179.0618
227.7396
251.9141
303.8389
408.1608
0.1000000 0.1000000 -0.5000000
120.4900
130.3933
227.3154
252.3281
278.9243
436.7890
0.1000000 0.2000000 0.0000000
129.1789
147.8572
249.0529
298.1674
333.5020
434.1555
0.1000000 0.2000000 0.1000000
146.4662
161.5154
264.5858
299.5114
323.2547
430.1200
0.1000000 0.2000000 0.2000000
187.1864
192.1548
264.2325
294.5582
331.9637
415.7301
0.1000000 0.2000000 0.3000000
221.4892
223.6629
250.8424
256.4774
377.4876
386.6007
0.1000000 0.2000000 0.4000000
197.3028
200.4280
259.9795
285.9033
343.0237
410.3731
0.1000000 0.2000000 -0.5000000
154.6519
167.7719
268.3289
303.0392
318.0329
427.8498
0.1000000 0.3000000 0.0000000
177.0663
191.5896
293.4215
346.1905
378.5285
412.9521
0.1000000 0.3000000 0.1000000
178.9823
204.4882
297.8491
349.9996
362.5016
420.5901
0.1000000 0.3000000 0.2000000
200.3314
231.3564
290.7650
316.9213
382.1667
423.9358
0.1000000 0.3000000 0.3000000
238.2462
245.0167
277.0632
281.3810
408.6914
413.3167
0.1000000 0.3000000 0.4000000
208.5462
237.8438
286.3924
307.3516
388.9827
422.8053
0.1000000 0.3000000 -0.5000000
181.7186
210.0861
298.0179
345.9330
363.0271
422.3912
0.1000000 0.4000000 0.0000000
217.2723
220.2216
320.0251
380.9771
387.4524
412.5088
0.1000000 0.4000000 0.1000000
208.8602
233.1672
318.3925
359.0147
395.2855
427.4994
0.1000000 0.4000000 0.2000000
212.0389
257.3511
298.7783
326.0890
417.6149
439.4728
0.1000000 0.4000000 0.3000000
240.8346
249.6999
293.9890
299.8365
435.4728
437.8968
0.1000000 0.4000000 0.4000000
216.6587
262.3175
291.7217
319.7380
422.6778
440.3903
0.1000000 0.4000000 -0.5000000
207.5390
238.2413
316.1212
350.8005
400.0190
431.3329
0.2000000 0.2000000 0.0000000
160.4723
170.4095
284.6261
324.7746
366.7887
421.1934
0.2000000 0.2000000 0.1000000
167.7861
184.7766
287.6749
333.3686
352.4198
423.2348
0.2000000 0.2000000 0.2000000
197.2077
215.1241
277.9317
313.6297
366.6777
420.4524
0.2000000 0.2000000 0.3000000
235.1696
239.8757
264.7586
271.3149
398.5637
404.4449
0.2000000 0.2000000 0.4000000
206.4239
222.9968
273.4269
303.6745
374.7262
418.0444
0.2000000 0.2000000 -0.5000000
172.6708
190.9997
287.0982
336.4416
347.9755
423.4625
0.2000000 0.3000000 0.0000000
198.7234
225.4770
303.8667
373.1213
385.4218
401.1088
0.2000000 0.3000000 0.1000000
194.0768
235.2641
313.4085
355.1444
379.3805
417.8190
0.2000000 0.3000000 0.2000000
203.3393
255.5910
309.9772
318.6741
397.6222
427.1688
0.2000000 0.3000000 0.3000000
236.9638
245.9817
298.3881
302.1600
418.3834
421.7614
0.2000000 0.3000000 0.4000000
209.4573
258.8556
302.6587
315.0135
403.0115
427.2623
0.2000000 0.3000000 -0.5000000
193.9206
239.7225
315.6504
345.8243
382.3115
421.2276
0.2000000 0.4000000 0.0000000
237.0326
266.4803
329.9631
376.4338
393.3560
405.5879
0.2000000 0.4000000 0.1000000
222.8267
274.5248
338.6341
348.0864
404.8231
418.4336
0.2000000 0.4000000 0.2000000
213.1110
278.4032
314.2834
347.2692
418.4497
433.3044
0.2000000 0.4000000 0.3000000
233.0842
241.4481
329.2046
333.7197
432.4385
434.2456
0.2000000 0.4000000 0.4000000
215.0030
271.5470
315.5054
345.3152
422.3004
434.8270
0.2000000 0.4000000 -0.5000000
218.5846
277.7148
333.4814
346.7404
407.1898
422.9722
0.3000000 0.3000000 0.0000000
223.7300
225.4558
323.1787
383.8823
384.1971
414.2928
0.3000000 0.3000000 0.1000000
212.5309
239.4792
321.4811
357.6300
398.0209
428.0646
0.3000000 0.3000000 0.2000000
212.7184
262.5640
299.2003
328.9151
419.8824
440.2420
0.3000000 0.3000000 0.3000000
239.5735
248.4011
299.1168
304.8754
437.0085
439.2681
0.3000000 0.3000000 0.4000000
216.7182
266.3134
292.5870
323.4158
424.7770
441.2812
0.3000000 0.3000000 -0.5000000
210.5205
244.4723
318.8207
350.0276
402.7267
431.8688
P = 1149.6000	V = 111.4903	E = -655.29980244000000	S_el = 0.00002598737167
0.0000000 0.0000000 0.0000000
0.0000
0.0000
0.0000
259.6157
259.6157
490.1944
0.0000000 0.0000000 0.1000000
65.0953
65.0953
143.2946
251.1648
251.1648
480.8737
0.0000000 0.0000000 0.2000000
123.4175
123.4175
225.5650
225.5650
270.7919
449.5845
0.0000000 0.0000000 0.3000000
174.3602
174.3602
185.3430
185.3430
370.7456
389.6106
0.0000000 0.0000000 0.4000000
136.0510
136.0510
217.1972
217.1972
297.1503
438.2550
0.0000000 0.0000000 -0.5000000
79.5703
79.5703
175.3171
246.6615
246.6615
475.7120
0.0000000 0.1000000 0.0000000
63.3170
69.0982
140.9791
268.9507
287.1992
484.9020
0.0000000 0.1000000 0.1000000
95.6645
108.1839
188.8456
261.1597
278.8367
476.2051
0.0000000 0.1000000 0.2000000
143.1449
159.1663
237.4031
253.9675
287.5196
447.3643
0.0000000 0.1000000 0.3000000
189.6775
199.8970
205.6013
215.8576
375.7215
392.7548
0.0000000 0.1000000 0.4000000
154.4642
170.4653
229.6071
245.9712
310.3172
436.9960
0.0000000 0.1000000 -0.5000000
106.3577
120.8682
210.7818
256.9951
274.4225
471.4174
0.0000000 0.2000000 0.0000000
124.1955
129.0592
262.0188
290.8989
346.8488
469.5784
0.0000000 0.2000000 0.1000000
146.1934
149.7873
283.8072
286.3119
336.9292
463.8784
0.0000000 0.2000000 0.2000000
183.1807
200.7430
264.3107
307.4450
341.0693
444.8164
0.0000000 0.2000000 0.3000000
223.0603
231.9401
253.0550
264.6258
397.0422
408.3501
0.0000000 0.2000000 0.4000000
192.7024
213.3622
257.6316
298.5164
354.9355
437.9067
0.0000000 0.2000000 -0.5000000
154.0259
160.7800
280.9222
296.8424
331.8402
460.7329
0.0000000 0.3000000 0.0000000
173.7803
179.4446
314.3671
350.2478
404.6544
446.0619
0.0000000 0.3000000 0.1000000
187.2116
189.5233
308.8474
365.2497
385.9268
452.3413
0.0000000 0.3000000 0.2000000
219.4830
222.3519
291.5858
339.1017
403.7409
453.9109
0.0000000 0.3000000 0.3000000
255.2553
263.1713
273.0895
286.0540
435.0311
440.5524
0.0000000 0.3000000 0.4000000
228.0318
233.2074
285.7870
327.2321
411.9554
452.2313
0.0000000 0.3000000 -0.5000000
193.5811
195.2808
305.8672
368.0341
381.8519
453.7787
0.0000000 0.4000000 0.0000000
200.3350
227.2147
332.1678
403.9890
417.9813
443.7708
0.0000000 0.4000000 0.1000000
212.8941
225.3891
326.9671
386.5972
420.8480
460.6362
0.0000000 0.4000000 0.2000000
237.0684
242.8109
310.8973
338.8031
447.6906
473.2484
0.0000000 0.4000000 0.3000000
274.8894
276.6617
284.0713
286.5547
468.1353
470.9586
0.0000000 0.4000000 0.4000000
243.7374
250.9402
305.5041
326.4069
453.5703
474.1250
0.0000000 0.4000000 -0.5000000
218.9129
225.9708
324.1794
376.3512
426.8342
464.7828
0.0000000 -0.5000000 0.0000000
212.1458
262.3364
342.0744
392.5194
429.8415
462.4270
0.0000000 -0.5000000 0.1000000
224.2245
252.5893
336.8164
371.5414
444.8516
473.0514
0.0000000 -0.5000000 0.2000000
247.7781
253.5751
320.8505
328.4900
469.8145
486.0445
0.0000000 -0.5000000 0.3000000
272.2278
281.8199
287.1709
294.6295
485.6886
487.4255
0.0000000 -0.5000000 0.4000000
250.7542
261.5709
315.1696
317.5463
474.7146
487.6042
0.0000000 -0.5000000 -0.5000000
230.0684
249.5943
334.0232
362.5403
450.8628
476.7464
0.1000000 0.1000000 0.0000000
88.8871
98.0064
192.6631
278.6189
309.4154
479.6985
0.1000000 0.1000000 0.1000000
118.5144
125.6173
226.8553
271.5796
300.7916
471.7867
0.1000000 0.1000000 0.2000000
160.3081
178.1673
248.8435
275.3875
305.6794
445.7752
0.1000000 0.1000000 0.3000000
203.1825
211.9154
227.6783
237.2270
381.8832
396.9781
0.1000000 0.1000000 0.4000000
170.6991
189.7500
241.7276
267.3265
324.9301
436.4709
0.1000000 0.1000000 -0.5000000
127.5777
138.3528
242.9160
268.0079
296.2708
467.4500
0.1000000 0.2000000 0.0000000
137.7486
156.6791
265.1746
317.5351
354.7321
464.6283
0.1000000 0.2000000 0.1000000
155.7081
171.1491
281.4307
319.4161
343.6906
460.2487
0.1000000 0.2000000 0.2000000
198.4505
203.7907
280.6284
312.8716
354.7696
444.7405
0.1000000 0.2000000 0.3000000
234.9591
237.2456
266.2768
272.2613
403.6058
413.4786
0.1000000 0.2000000 0.4000000
209.2811
212.6580
276.0578
303.5180
366.7525
438.9239
0.1000000 0.2000000 -0.5000000
164.3525
177.8684
285.2384
323.5054
338.0083
457.7663
0.1000000 0.3000000 0.0000000
188.5048
203.2335
311.8240
369.5612
403.2728
441.4600
0.1000000 0.3000000 0.1000000
190.3412
216.9655
316.4887
372.9860
386.8697
449.6308
0.1000000 0.3000000 0.2000000
212.8014
245.5141
308.9768
337.0892
408.4422
453.3090
0.1000000 0.3000000 0.3000000
252.8672
260.0715
294.5406
299.1798
436.9221
441.9413
0.1000000 0.3000000 0.4000000
221.5702
252.4774
304.2961
326.7759
415.8224
452.0941
0.1000000 0.3000000 -0.5000000
193.2317
222.9691
316.6603
368.1200
387.9107
451.5993
0.1000000 0.4000000 0.0000000
230.7410
234.1592
340.2593
406.6727
413.6156
440.3749
0.1000000 0.4000000 0.1000000
222.0078
247.7712
338.5374
382.6492
422.3789
456.6765
0.1000000 0.4000000 0.2000000
225.5345
273.3769
317.8019
347.2880
446.3385
469.8116
0.1000000 0.4000000 0.3000000
256.0376
265.4863
312.7724
319.0689
465.5963
468.2307
0.1000000 0.4000000 0.4000000
230.5013
278.6633
310.3267
340.3747
451.8438
470.8475
0.1000000 0.4000000 -0.5000000
220.6464
253.1939
336.0932
373.7526
427.4983
460.9031
0.2000000 0.2000000 0.0000000
170.8562
180.7946
302.5586
346.5156
390.5688
450.4680
0.2000000 0.2000000 0.1000000
178.3920
196.0470
305.6679
355.6927
375.3435
452.6477
0.2000000 0.2000000 0.2000000
209.3508
228.2994
295.2615
333.4069
391.8382
449.6723
0.2000000 0.2000000 0.3000000
249.5370
254.5805
281.3080
288.3329
426.0916
432.4773
0.2000000 0.2000000 0.4000000
219.1874
236.7598
290.4246
322.6720
400.5595
447.0585
0.2000000 0.2000000 -0.5000000
183.5639
202.7201
305.0173
358.4474
371.1253
452.8942
0.2000000 0.3000000 0.0000000
211.3897
239.2735
322.8661
398.6066
410.7462
428.5068
0.2000000 0.3000000 0.1000000
206.3749
249.6331
333.0583
378.2075
405.5676
446.3969
0.2000000 0.3000000 0.2000000
216.1098
271.1774
329.7708
338.9458
425.0790
456.6585
0.2000000 0.3000000 0.3000000
251.6356
261.2343
317.3505
321.3608
447.3143
450.9672
0.2000000 0.3000000 0.4000000
222.6464
274.6604
321.9977
334.9575
430.8992
456.7943
0.2000000 0.3000000 -0.5000000
206.1919
254.4054
335.4853
368.1068
408.7514
450.1447
0.2000000 0.4000000 0.0000000
251.8606
283.1105
350.6505
401.5403
419.4360
433.5998
0.2000000 0.4000000 0.1000000
236.8149
291.5605
360.1913
370.6913
432.8959
446.7316
0.2000000 0.4000000 0.2000000
226.6555
295.5757
334.7410
369.6027
447.3888
463.0261
0.2000000 0.4000000 0.3000000
247.8243
256.7468
350.3911
355.2476
462.3140
464.2501
0.2000000 0.4000000 0.4000000
228.7124
288.3455
335.9582
367.5351
451.5298
464.7405
0.2000000 0.4000000 -0.5000000
232.3055
294.9276
354.9974
368.9414
435.4630
451.7156
0.3000000 0.3000000 0.0000000
237.7612
239.5525
343.6127
409.7453
410.0730
442.3776
0.3000000 0.3000000 0.1000000
225.9049
254.4828
341.8349
381.1838
425.2892
457.2904
0.3000000 0.3000000 0.2000000
226.2720
278.9100
318.3445
350.2911
448.7671
470.6327
0.3000000 0.3000000 0.3000000
254.7316
264.1459
318.2574
324.4609
467.2446
469.7009
0.3000000 0.3000000 0.4000000
230.5798
282.8790
311.3569
344.3019
454.0917
471.8012
0.3000000 0.3000000 -0.5000000
223.8046
259.8222
338.9820
372.9472
430.3877
461.4786
P = 1644.9700	V = 104.5144	E = -655.24780396000000	S_el = 0.00002371057000
0.0000000 0.0000000 0.0000000
0.0000
0.0000
0.0000
285.8836
285.8836
547.5851
0.0000000 0.0000000 0.1000000
70.6931
70.6931
159.3658
276.5705
276.5705
536.6450
0.0000000 0.0000000 0.2000000
134.8717
134.8717
248.3698
248.3698
300.9971
500.7338
0.0000000 0.0000000 0.3000000
191.5135
191.5135
203.8681
203.8681
412.0984
433.3932
0.0000000 0.0000000 0.4000000
149.0650
149.0650
239.0154
239.0154
330.6250
487.7433
0.0000000 0.0000000 -0.5000000
86.7232
86.7232
195.3873
271.5427
271.5427
530.5652
0.0000000 0.1000000 0.0000000
70.3222
75.8418
156.3607
296.2009
316.4256
541.4678
0.0000000 0.1000000 0.1000000
104.5638
118.7190
210.0049
287.5875
307.1330
531.3209
0.0000000 0.1000000 0.2000000
156.7804
174.3066
261.3812
279.5328
319.8137
498.3357
0.0000000 0.1000000 0.3000000
208.4346
219.9127
225.7164
237.2469
417.8667
437.0884
0.0000000 0.1000000 0.4000000
169.4816
186.9276
252.6653
270.5500
345.4472
486.4714
0.0000000 0.1000000 -0.5000000
116.4018
132.6110
234.7835
282.9267
302.1668
525.7087
0.0000000 0.2000000 0.0000000
137.4502
142.0132
290.6873
320.5234
382.7204
523.7583
0.0000000 0.2000000 0.1000000
160.5094
165.2242
313.2565
317.2277
371.5960
517.2129
0.0000000 0.2000000 0.2000000
201.1603
220.6027
291.0388
338.4307
379.2971
495.5958
0.0000000 0.2000000 0.3000000
245.3198
255.2688
277.9728
290.9080
441.8741
454.6838
0.0000000 0.2000000 0.4000000
211.8278
234.5601
283.5638
328.3565
394.9855
487.7135
0.0000000 0.2000000 -0.5000000
169.1199
177.3611
309.3680
329.7574
365.8640
513.5721
0.0000000 0.3000000 0.0000000
191.1208
198.5185
346.7017
388.5928
447.6370
496.5980
0.0000000 0.3000000 0.1000000
206.1836
209.1349
340.4952
404.7576
427.3733
503.5505
0.0000000 0.3000000 0.2000000
241.4506
245.2209
321.2584
374.1207
448.8277
505.3314
0.0000000 0.3000000 0.3000000
280.9363
289.7992
300.9254
315.3922
483.9718
490.2710
0.0000000 0.3000000 0.4000000
250.9633
257.3003
314.7431
360.7744
458.1407
503.4096
0.0000000 0.3000000 -0.5000000
213.3766
215.3971
337.1130
406.7429
423.9236
505.1854
0.0000000 0.4000000 0.0000000
220.7410
250.8001
366.7844
448.1577
464.2303
492.4204
0.0000000 0.4000000 0.1000000
234.5075
249.1011
360.8791
428.1746
467.5620
511.9824
0.0000000 0.4000000 0.2000000
262.2362
267.4166
342.8141
374.8970
497.7120
526.6188
0.0000000 0.4000000 0.3000000
303.8877
304.7909
313.2112
316.8070
520.8824
524.1266
0.0000000 0.4000000 0.4000000
269.7575
276.4239
336.7145
360.9627
504.4371
527.6640
0.0000000 0.4000000 -0.5000000
241.1985
249.8679
357.6851
416.5721
474.3363
516.8349
0.0000000 -0.5000000 0.0000000
234.0836
289.2782
378.1140
434.9943
476.7948
514.3628
0.0000000 -0.5000000 0.1000000
247.2975
279.1247
372.0975
411.7002
493.8038
526.4324
0.0000000 -0.5000000 0.2000000
274.6354
279.4363
354.0189
364.1042
522.2957
541.3041
0.0000000 -0.5000000 0.3000000
301.8365
312.5553
316.4142
324.7649
540.7057
542.7764
0.0000000 -0.5000000 0.4000000
278.0767
288.3202
347.9252
351.5043
528.0085
543.0982
0.0000000 -0.5000000 -0.5000000
253.7772
276.0155
368.8725
401.6071
500.7152
530.7051
0.1000000 0.1000000 0.0000000
98.7024
107.5556
213.6926
306.9487
341.0580
535.4534
0.1000000 0.1000000 0.1000000
129.8218
138.2688
251.9929
299.1795
331.4206
526.2752
0.1000000 0.1000000 0.2000000
175.7942
195.3540
273.9647
303.0774
340.0640
496.6244
0.1000000 0.1000000 0.3000000
223.3371
233.0940
250.0044
260.6817
424.8920
441.9334
0.1000000 0.1000000 0.4000000
187.4461
208.2285
266.0045
293.9936
361.7509
485.9961
0.1000000 0.1000000 -0.5000000
139.8581
152.2075
270.0878
295.2778
326.3090
521.2151
0.1000000 0.2000000 0.0000000
152.7019
172.0027
293.2022
351.2992
391.4275
518.0355
0.1000000 0.2000000 0.1000000
171.8524
187.8699
310.6364
354.1645
379.0220
513.0336
0.1000000 0.2000000 0.2000000
217.9759
224.0007
309.0352
344.5159
394.5703
495.4935
0.1000000 0.2000000 0.3000000
258.2739
260.7442
292.9817
299.5375
449.2140
460.4088
0.1000000 0.2000000 0.4000000
229.9850
233.8800
303.9156
333.9683
408.1408
488.8616
0.1000000 0.2000000 -0.5000000
181.2611
195.3752
314.5397
359.1739
372.6040
510.1725
0.1000000 0.3000000 0.0000000
208.3758
223.4581
343.7488
410.2278
446.1604
491.2709
0.1000000 0.3000000 0.1000000
210.1415
238.6191
348.7935
412.6718
429.4485
500.3680
0.1000000 0.3000000 0.2000000
234.5191
270.0378
340.5097
371.9939
454.2453
504.6065
0.1000000 0.3000000 0.3000000
278.2063
286.1254
324.8203
329.9989
486.1463
491.8567
0.1000000 0.3000000 0.4000000
244.2058
277.7993
335.3076
360.4169
462.5904
503.2325
0.1000000 0.3000000 -0.5000000
213.3059
245.3030
348.9597
406.4841
431.3301
502.6275
0.1000000 0.4000000 0.0000000
254.1561
258.2858
375.3164
451.2372
459.1659
488.8290
0.1000000 0.4000000 0.1000000
244.8758
273.1339
373.4147
423.6512
469.5369
507.4746
0.1000000 0.4000000 0.2000000
249.0821
301.1514
350.7784
384.0558
496.3220
522.6857
0.1000000 0.4000000 0.3000000
282.4722
292.8864
345.3513
352.4057
518.0421
521.0512
0.1000000 0.4000000 0.4000000
254.6297
306.9681
342.6205
376.1699
502.5883
523.9231
0.1000000 0.4000000 -0.5000000
243.4821
279.1375
370.6745
413.5903
475.3143
512.4012
0.2000000 0.2000000 0.0000000
188.8799
198.8940
333.6763
384.4009
431.7351
501.6776
0.2000000 0.2000000 0.1000000
196.8775
215.6398
336.8705
394.3825
415.2361
504.0990
0.2000000 0.2000000 0.2000000
230.4675
251.1544
325.2831
367.6005
435.7075
500.7429
0.2000000 0.2000000 0.3000000
274.4223
280.0326
309.9725
317.7784
474.1117
481.3821
0.2000000 0.2000000 0.4000000
241.3343
260.6037
319.8777
355.5396
445.5831
497.7554
0.2000000 0.2000000 -0.5000000
202.5420
223.0682
336.0851
396.3820
411.6173
504.3751
0.2000000 0.3000000 0.0000000
233.3584
263.1840
355.8050
442.7224
454.8616
476.3040
0.2000000 0.3000000 0.1000000
227.7975
274.5157
367.0814
418.1314
451.2482
496.2253
0.2000000 0.3000000 0.2000000
238.3795
298.1192
364.0483
374.0546
472.9367
508.0993
0.2000000 0.3000000 0.3000000
277.0989
287.6523
350.1957
354.5920
497.7373
501.8700
0.2000000 0.3000000 0.4000000
245.6086
301.9655
355.5443
369.4750
479.4897
508.3037
0.2000000 0.3000000 -0.5000000
227.5908
279.8103
369.8126
406.7131
454.8547
500.5712
0.2000000 0.4000000 0.0000000
277.5127
311.9088
386.4668
445.2054
464.4588
482.4813
0.2000000 0.4000000 0.1000000
261.1347
321.0262
397.4774
409.9131
481.7295
495.9684
0.2000000 0.4000000 0.2000000
250.3091
325.2713
370.2640
408.2208
497.7787
514.7616
0.2000000 0.4000000 0.3000000
273.5002
283.3462
387.0728
392.4959
514.3212
516.4794
0.2000000 0.4000000 0.4000000
252.6455
317.4505
371.4394
405.9638
502.4107
516.8143
0.2000000 0.4000000 -0.5000000
256.2103
324.6745
392.3056
407.3931
484.6813
501.7048
0.3000000 0.3000000 0.0000000
262.0208
264.0703
379.0052
454.5758
455.1098
491.2297
0.3000000 0.3000000 0.1000000
249.1644
280.5275
377.0637
422.0556
472.7300
508.1688
0.3000000 0.3000000 0.2000000
249.9272
307.2274
351.5448
387.3601
499.0216
523.5880
0.3000000 0.3000000 0.3000000
281.1001
291.4856
351.4510
358.4054
519.8795
522.6870
0.3000000 0.3000000 0.4000000
254.7516
311.5599
343.9482
380.5214
505.0872
524.9776
0.3000000 0.3000000 -0.5000000
246.9487
286.4443
373.8852
412.7348
478.5035
513.0380
P = 2139.5700	V = 99.1777	E = -655.18984949000000	S_el = 0.00002198631167
0.0000000 0.0000000 0.0000000
0.0000
0.0000
0.0000
308.3128
308.3128
597.1367
0.0000000 0.0000000 0.1000000
75.6785
75.6785
173.1018
298.2860
298.2860
584.6992
0.0000000 0.0000000 0.2000000
144.8538
144.8538
267.8819
267.8819
326.8299
544.6221
0.0000000 0.0000000 0.3000000
206.2578
206.2578
219.7418
219.7418
447.4945
470.8409
0.0000000 0.0000000 0.4000000
160.3236
160.3236
257.7064
257.7064
359.1991
530.1937
0.0000000 0.0000000 -0.5000000
93.0226
93.0226
212.4717
292.8294
292.8294
577.7948
0.0000000 0.1000000 0.0000000
76.2548
81.6626
169.5867
319.4701
341.3250
590.2680
0.0000000 0.1000000 0.1000000
112.3168
127.7380
228.1649
310.1685
331.2581
578.7886
0.0000000 0.1000000 0.2000000
168.5735
187.2964
281.8783
301.3315
347.4677
542.0790
0.0000000 0.1000000 0.3000000
224.5207
237.0368
242.8904
255.4761
453.9607
475.0299
0.0000000 0.1000000 0.4000000
182.4085
201.0052
272.3958
291.5228
375.4737
528.9213
0.0000000 0.1000000 -0.5000000
125.1204
142.6581
255.3107
305.0991
325.8377
572.4399
0.0000000 0.2000000 0.0000000
148.6860
153.1553
315.3200
345.8217
413.2155
570.3904
0.0000000 0.2000000 0.1000000
172.8327
178.3635
338.1718
343.9781
401.0851
563.0837
0.0000000 0.2000000 0.2000000
216.5925
237.4979
313.8505
364.7397
412.0602
539.1853
0.0000000 0.2000000 0.3000000
264.3514
275.1841
299.1241
313.1900
480.2921
494.3746
0.0000000 0.2000000 0.4000000
228.2013
252.5515
305.7109
353.7032
429.2710
530.4616
0.0000000 0.2000000 -0.5000000
182.1041
191.4388
333.6634
357.9251
394.8434
559.0073
0.0000000 0.3000000 0.0000000
206.0853
214.6034
374.3052
421.4554
484.2356
539.9331
0.0000000 0.3000000 0.1000000
222.4277
225.8480
367.4988
438.3985
462.8350
547.4875
0.0000000 0.3000000 0.2000000
260.2474
264.6862
346.5602
403.8379
487.4390
549.4393
0.0000000 0.3000000 0.3000000
302.8677
312.5131
324.5572
340.2665
525.8841
532.8503
0.0000000 0.3000000 0.4000000
270.5593
277.7589
339.4472
389.2585
497.6672
547.3000
0.0000000 0.3000000 -0.5000000
230.2743
232.5652
363.7756
439.5818
460.0278
549.2943
0.0000000 0.4000000 0.0000000
238.3484
270.6679
396.3080
485.8916
503.7092
533.9811
0.0000000 0.4000000 0.1000000
253.0907
269.2160
389.7941
463.5455
507.5398
555.9267
0.0000000 0.4000000 0.2000000
283.7003
288.4691
370.0270
405.5943
540.4817
572.3446
0.0000000 0.4000000 0.3000000
328.4762
328.9122
338.0274
342.5737
566.0109
569.6247
0.0000000 0.4000000 0.4000000
291.9191
298.2010
363.3411
390.3761
547.9185
573.5269
0.0000000 0.4000000 -0.5000000
260.3181
270.1815
386.2580
450.8093
514.9612
561.3980
0.0000000 -0.5000000 0.0000000
253.0209
311.9716
408.8189
471.1003
516.8556
558.8051
0.0000000 -0.5000000 0.1000000
267.1432
301.6481
402.1622
445.8590
535.5609
572.1514
0.0000000 -0.5000000 0.2000000
297.5868
301.5784
382.3064
394.4287
567.0901
588.6568
0.0000000 -0.5000000 0.3000000
327.0965
338.7019
341.4465
350.4942
587.7506
590.1288
0.0000000 -0.5000000 0.4000000
301.4167
311.1887
375.7928
380.5351
573.5039
590.6384
0.0000000 -0.5000000 -0.5000000
274.1264
298.5074
398.5795
434.8690
543.2279
576.9252
0.1000000 0.1000000 0.0000000
107.0040
115.7932
231.7736
331.1430
367.9819
583.5159
0.1000000 0.1000000 0.1000000
139.6022
149.0519
273.5677
322.7660
357.4967
573.1813
0.1000000 0.1000000 0.2000000
189.1299
210.0278
295.4189
326.6413
369.5274
540.2689
0.1000000 0.1000000 0.3000000
240.5916
251.1850
269.0140
280.6192
461.7390
480.4246
0.1000000 0.1000000 0.4000000
201.8175
223.9651
286.7538
316.6987
393.2499
528.4967
0.1000000 0.1000000 -0.5000000
150.4558
164.0011
293.3193
318.6262
351.8978
567.4784
0.1000000 0.2000000 0.0000000
165.3282
185.1718
317.1973
380.2515
422.6013
563.9681
0.1000000 0.2000000 0.1000000
185.5796
202.2184
335.5376
384.0049
409.0469
558.4107
0.1000000 0.2000000 0.2000000
234.6267
241.2614
333.2293
371.3860
428.6896
539.0586
0.1000000 0.2000000 0.3000000
278.1445
280.7457
315.6821
322.6881
488.3005
500.6166
0.1000000 0.2000000 0.4000000
247.6055
251.9667
327.6479
359.8384
443.5839
531.7206
0.1000000 0.2000000 -0.5000000
195.6378
210.3670
339.4983
389.7348
402.0703
555.2182
0.1000000 0.3000000 0.0000000
225.1394
240.8047
370.9951
445.0372
482.7129
533.9569
0.1000000 0.3000000 0.1000000
226.9713
257.1342
376.3130
446.3514
466.0177
543.8758
0.1000000 0.3000000 0.2000000
253.0293
290.9415
367.3383
401.6398
493.4873
548.5965
0.1000000 0.3000000 0.3000000
299.7606
308.2688
350.5783
356.1942
528.3065
534.6072
0.1000000 0.3000000 0.4000000
263.4666
299.3504
361.7037
389.0118
502.6325
547.0787
0.1000000 0.3000000 -0.5000000
230.3861
264.3708
376.4621
439.0844
468.5686
546.3886
0.1000000 0.4000000 0.0000000
274.2380
278.6255
405.1783
489.2589
498.0316
530.2737
0.1000000 0.4000000 0.1000000
264.3410
294.7741
403.0929
458.5408
509.9029
550.9357
0.1000000 0.4000000 0.2000000
269.1851
324.8173
378.8463
415.3518
539.0746
567.9675
0.1000000 0.4000000 0.3000000
304.9968
316.1974
373.1112
380.7880
562.9135
566.2488
0.1000000 0.4000000 0.4000000
275.2102
331.0572
370.1390
406.6518
545.9780
569.3730
0.1000000 0.4000000 -0.5000000
262.9435
301.2623
400.1028
447.5100
516.2248
556.4709
0.2000000 0.2000000 0.0000000
204.1119
214.4280
360.2463
416.8804
466.7678
545.6229
0.2000000 0.2000000 0.1000000
212.6071
232.4097
363.4733
427.3401
449.3740
548.2656
0.2000000 0.2000000 0.2000000
248.4722
270.6497
350.8493
396.6222
473.2960
544.5607
0.2000000 0.2000000 0.3000000
295.6155
301.6896
334.3423
342.7738
515.2494
523.2749
0.2000000 0.2000000 0.4000000
260.1857
280.9036
344.9679
383.4555
484.1319
541.2440
0.2000000 0.2000000 -0.5000000
218.6974
240.4548
362.5653
428.5208
446.4340
548.5683
0.2000000 0.3000000 0.0000000
251.8904
283.6124
383.8989
480.2406
492.7005
517.1869
0.2000000 0.3000000 0.1000000
245.9910
295.7403
396.0271
452.0645
490.4435
538.8807
0.2000000 0.3000000 0.2000000
257.3678
321.0272
393.1823
403.9120
513.9417
552.1719
0.2000000 0.3000000 0.3000000
298.7590
310.0868
378.1432
382.8431
540.9146
545.4545
0.2000000 0.3000000 0.4000000
265.1630
325.1590
384.1069
398.8149
521.0972
552.4327
0.2000000 0.3000000 -0.5000000
245.7967
301.4531
398.9948
439.5544
494.3925
543.7475
0.2000000 0.4000000 0.0000000
299.1562
336.4569
416.9667
482.4130
502.6891
524.4341
0.2000000 0.4000000 0.1000000
281.7871
346.1003
429.1434
443.3158
523.4989
538.0685
0.2000000 0.4000000 0.2000000
270.5077
350.4787
400.5612
441.0151
540.9115
559.0098
0.2000000 0.4000000 0.3000000
295.4019
305.9973
418.2786
424.1565
558.8126
561.1561
0.2000000 0.4000000 0.4000000
273.0790
342.1895
401.6836
438.6056
545.9450
561.3556
0.2000000 0.4000000 -0.5000000
276.5610
349.9598
424.0494
440.1018
526.8129
544.4191
0.3000000 0.3000000 0.0000000
282.6589
284.8928
409.1429
492.8027
493.5226
533.0313
0.3000000 0.3000000 0.1000000
268.9558
302.7456
407.0296
456.8405
513.3189
551.6985
0.3000000 0.3000000 0.2000000
270.1258
331.3437
379.8076
418.9153
541.9985
568.9338
0.3000000 0.3000000 0.3000000
303.5744
314.7504
379.7328
387.3037
564.9079
568.0217
0.3000000 0.3000000 0.4000000
275.3758
335.9618
371.7259
411.3637
548.6856
570.5079
0.3000000 0.3000000 -0.5000000
266.6715
309.1412
403.5788
446.6169
519.6562
557.1569
P = 2633.2700	V = 94.8736	E = -655.12849143000000	S_el = 0.00002061549833
0.0000000 0.0000000 0.0000000
0.0000
0.0000
0.0000
328.0595
328.0595
641.0471
0.0000000 0.0000000 0.1000000
80.3218
80.3218
185.1238
317.4258
317.4258
627.2111
0.0000000 0.0000000 0.2000000
153.8881
153.8881
285.0995
285.0995
349.5010
583.3198
0.0000000 0.0000000 0.3000000
219.3492
219.3492
233.7860
233.7860
478.6312
503.7663
0.0000000 0.0000000 0.4000000
170.4276
170.4276
274.2187
274.2187
384.2461
567.6162
0.0000000 0.0000000 -0.5000000
98.8206
98.8206
227.3797
311.6077
311.6077
619.5546
0.0000000 0.1000000 0.0000000
81.3955
86.8413
181.2955
339.9541
363.2020
633.4858
0.0000000 0.1000000 0.1000000
119.3244
135.6795
244.1829
330.0614
352.4724
620.7668
0.0000000 0.1000000 0.2000000
179.1391
198.8200
299.9473
320.5071
371.7844
580.6535
0.0000000 0.1000000 0.3000000
238.7645
252.1591
258.0337
271.5182
485.7286
508.4069
0.0000000 0.1000000 0.4000000
193.9290
213.4549
289.8057
309.9852
401.8391
566.3498
0.0000000 0.1000000 -0.5000000
132.9769
151.5232
273.3495
324.6452
346.6668
613.7486
0.0000000 0.2000000 0.0000000
158.4746
163.0029
337.1125
368.0878
439.9562
611.6116
0.0000000 0.2000000 0.1000000
183.7923
189.8256
359.9609
367.7413
426.9586
603.6066
0.0000000 0.2000000 0.2000000
230.2741
252.2937
333.9260
387.7888
440.9416
577.6348
0.0000000 0.2000000 0.3000000
281.1399
292.7242
317.6459
332.6829
514.1396
529.3309
0.0000000 0.2000000 0.4000000
242.6791
268.2853
325.2142
375.9181
459.4598
568.1659
0.0000000 0.2000000 -0.5000000
193.6486
203.7027
355.0539
382.7446
420.2975
599.1389
0.0000000 0.3000000 0.0000000
219.4110
228.5080
398.5910
450.4670
516.3695
578.1247
0.0000000 0.3000000 0.1000000
236.7726
240.4615
391.2489
467.9336
494.0768
586.2403
0.0000000 0.3000000 0.2000000
276.8373
281.7148
368.8056
429.8353
521.4740
588.3457
0.0000000 0.3000000 0.3000000
322.1822
332.4949
345.2195
361.9954
562.8174
570.3691
0.0000000 0.3000000 0.4000000
287.8341
295.6265
361.1785
414.1900
532.4867
586.0099
0.0000000 0.3000000 -0.5000000
245.1498
247.6076
387.2285
468.3368
491.8953
588.2025
0.0000000 0.4000000 0.0000000
254.0117
287.8627
422.2619
519.1203
538.3710
570.5698
0.0000000 0.4000000 0.1000000
269.5644
286.7370
415.2102
494.5343
542.7781
594.6450
0.0000000 0.4000000 0.2000000
302.5085
307.0319
393.9508
432.4737
578.1429
612.6635
0.0000000 0.4000000 0.3000000
349.9396
350.2159
359.8138
365.1592
605.7628
609.7074
0.0000000 0.4000000 0.4000000
311.3127
317.3889
386.7625
416.1472
586.1956
613.9616
0.0000000 0.4000000 -0.5000000
277.2329
287.9094
411.3782
480.8196
550.7472
600.6695
0.0000000 -0.5000000 0.0000000
269.8640
331.6370
435.7873
502.6890
552.1015
597.9814
0.0000000 -0.5000000 0.1000000
284.7357
321.2953
428.5773
475.7655
572.2795
612.4695
0.0000000 -0.5000000 0.2000000
317.7247
321.1197
407.1823
420.9937
606.4848
630.4271
0.0000000 -0.5000000 0.3000000
349.2437
361.5737
363.5298
373.1415
629.1801
631.8438
0.0000000 -0.5000000 0.4000000
321.8909
331.3436
400.2335
406.0672
613.5179
632.5642
0.0000000 -0.5000000 -0.5000000
292.1307
318.1752
424.6898
464.0136
580.5971
617.6870
0.1000000 0.1000000 0.0000000
114.1835
123.1252
247.7797
352.4408
391.6109
626.0542
0.1000000 0.1000000 0.1000000
148.3576
158.4789
292.6210
343.5435
380.3961
614.6480
0.1000000 0.1000000 0.2000000
201.0092
222.9535
314.3131
347.3318
395.4704
578.7604
0.1000000 0.1000000 0.3000000
255.8389
267.1348
285.7231
298.1163
494.1838
514.3008
0.1000000 0.1000000 0.4000000
214.5712
237.8010
305.0416
336.6457
420.9450
565.9753
0.1000000 0.1000000 -0.5000000
159.9262
174.3201
313.7592
339.2269
374.3826
608.3631
0.1000000 0.2000000 0.0000000
176.2366
196.8582
338.3708
405.8105
449.9233
604.5465
0.1000000 0.2000000 0.1000000
197.5452
214.9321
357.4266
410.3773
435.3696
598.4833
0.1000000 0.2000000 0.2000000
249.2694
256.4522
354.4761
394.9254
458.7792
577.4877
0.1000000 0.2000000 0.3000000
295.6204
298.3116
335.5812
342.9554
522.7445
536.0373
0.1000000 0.2000000 0.4000000
263.0866
267.8487
348.4948
382.5122
474.8075
569.5243
0.1000000 0.2000000 -0.5000000
208.1864
223.6221
361.4170
416.6899
427.9537
594.9946
0.1000000 0.3000000 0.0000000
239.6453
256.1576
394.9685
475.7293
514.8340
571.5565
0.1000000 0.3000000 0.1000000
241.6536
273.4630
400.4811
475.8496
498.3247
582.2347
0.1000000 0.3000000 0.2000000
269.2469
309.3207
390.8744
427.5933
528.0919
587.3918
0.1000000 0.3000000 0.3000000
318.6535
327.6727
373.1616
379.1433
565.4634
572.2802
0.1000000 0.3000000 0.4000000
280.3261
318.2724
384.8679
414.0609
537.9197
585.7441
0.1000000 0.3000000 -0.5000000
245.3056
281.1638
400.6054
467.6602
501.4323
584.9758
0.1000000 0.4000000 0.0000000
292.0011
296.2490
431.4063
522.7054
532.1420
566.7964
0.1000000 0.4000000 0.1000000
281.3792
313.7953
429.1349
489.1167
545.4883
589.2183
0.1000000 0.4000000 0.2000000
286.8174
345.6079
403.4649
442.7937
576.7318
607.8822
0.1000000 0.4000000 0.3000000
324.7446
336.6148
397.4869
405.6924
602.4396
606.0646
0.1000000 0.4000000 0.4000000
293.2508
352.1970
394.2934
433.3951
584.1838
609.4325
0.1000000 0.4000000 -0.5000000
279.9892
320.7079
425.9265
477.2514
552.2744
595.2940
0.2000000 0.2000000 0.0000000
217.3317
228.1603
383.6358
445.5526
497.5142
584.3758
0.2000000 0.2000000 0.1000000
226.3516
247.2034
386.8541
456.2829
479.4617
587.2303
0.2000000 0.2000000 0.2000000
264.2699
287.7921
373.2982
422.0217
506.4416
583.2118
0.2000000 0.2000000 0.3000000
314.2281
320.6951
355.6951
364.6434
551.5053
560.1908
0.2000000 0.2000000 0.4000000
276.7116
298.7212
367.0054
407.9002
518.0995
579.6013
0.2000000 0.2000000 -0.5000000
232.8253
255.7700
385.8323
456.6320
477.2199
587.5592
0.2000000 0.3000000 0.0000000
267.9414
301.6242
408.6071
513.1403
526.1325
553.1409
0.2000000 0.3000000 0.1000000
261.8521
314.4228
421.4183
481.7961
525.0612
576.4482
0.2000000 0.3000000 0.2000000
274.0004
341.1281
418.7028
430.0847
550.1059
591.0206
0.2000000 0.3000000 0.3000000
317.7278
329.7137
402.6576
407.6069
578.9666
583.8604
0.2000000 0.3000000 0.4000000
282.2794
345.4894
409.1594
424.5275
557.7716
591.3306
0.2000000 0.3000000 -0.5000000
261.6965
320.4815
424.5749
468.3473
529.2969
581.7811
0.2000000 0.4000000 0.0000000
317.9382
358.0453
443.7569
515.0306
536.2005
561.4918
0.2000000 0.4000000 0.1000000
299.8116
368.1166
456.8734
472.6188
560.2985
575.1370
0.2000000 0.4000000 0.2000000
288.2201
372.5412
427.1802
469.7345
578.9274
597.9737
0.2000000 0.4000000 0.3000000
314.6103
325.8406
445.6515
451.9075
598.0014
600.5036
0.2000000 0.4000000 0.4000000
290.9971
363.8552
428.2510
467.1985
584.2991
600.5797
0.2000000 0.4000000 -0.5000000
294.3593
372.1402
451.8741
468.7831
563.9537
582.0048
0.3000000 0.3000000 0.0000000
300.7780
303.0636
435.6065
526.4153
527.2241
569.8795
0.3000000 0.3000000 0.1000000
286.2720
322.2756
433.3155
487.3270
549.0880
590.0439
0.3000000 0.3000000 0.2000000
287.8435
352.5215
404.5955
446.5906
579.8484
608.9024
0.3000000 0.3000000 0.3000000
323.2800
335.1279
404.5667
412.6611
604.5699
607.9564
0.3000000 0.3000000 0.4000000
293.4583
357.3696
396.1090
438.4256
587.0717
610.6357
0.3000000 0.3000000 -0.5000000
283.9440
329.0870
429.6276
476.3285
555.9094
596.0232
P = 3127.6900	V = 91.2893	E = -655.06519877000000	S_el = 0.00001949469833
0.0000000 0.0000000 0.0000000
0.0000
0.0000
0.0000
345.7327
345.7327
680.5096
0.0000000 0.0000000 0.1000000
84.7097
84.7097
195.7965
334.5741
334.5741
665.3641
0.0000000 0.0000000 0.2000000
162.1977
162.1977
300.5423
300.5423
369.6951
617.9565
0.0000000 0.0000000 0.3000000
231.1641
231.1641
246.4183
246.4183
506.4416
533.1640
0.0000000 0.0000000 0.4000000
179.6485
179.6485
289.0443
289.0443
406.5385
601.1068
0.0000000 0.0000000 -0.5000000
104.2436
104.2436
240.5839
328.4449
328.4449
657.0166
0.0000000 0.1000000 0.0000000
85.9159
91.5196
191.8215
358.2841
382.7471
672.3069
0.0000000 0.1000000 0.1000000
125.7601
142.7814
258.5251
347.8754
371.4405
658.4301
0.0000000 0.1000000 0.2000000
188.7616
209.2159
316.1389
337.6599
393.4887
615.1828
0.0000000 0.1000000 0.3000000
251.5856
265.7368
271.6142
285.8781
514.1167
538.2215
0.0000000 0.1000000 0.4000000
204.3701
224.6557
305.4201
326.5110
425.3454
599.8499
0.0000000 0.1000000 -0.5000000
140.1746
159.4741
289.4452
342.1589
365.3018
650.7983
0.0000000 0.2000000 0.0000000
167.1403
171.8358
356.6922
388.0073
463.8057
648.5840
0.0000000 0.2000000 0.1000000
193.6983
199.9740
379.3627
389.1476
450.0463
639.9335
0.0000000 0.2000000 0.2000000
242.6050
265.4634
351.8873
408.3315
466.7955
612.0611
0.0000000 0.2000000 0.3000000
296.1960
308.4316
334.1452
350.0337
544.4191
560.5917
0.0000000 0.2000000 0.4000000
255.6962
282.2775
342.6739
395.7241
486.4558
601.9237
0.0000000 0.2000000 -0.5000000
204.0827
214.5525
374.1971
404.9626
443.0322
635.1103
0.0000000 0.3000000 0.0000000
231.4642
240.7165
420.3094
476.4872
545.0589
612.2954
0.0000000 0.3000000 0.1000000
249.6479
253.4336
412.4832
494.3005
522.0406
620.9409
0.0000000 0.3000000 0.2000000
291.7208
296.8479
388.6906
452.9668
551.9486
623.1904
0.0000000 0.3000000 0.3000000
339.4745
350.3676
363.5875
381.2986
595.8738
603.9465
0.0000000 0.3000000 0.4000000
303.3162
311.4853
380.6131
436.3819
563.6460
620.6761
0.0000000 0.3000000 -0.5000000
258.4633
260.9889
408.1996
493.9560
520.4553
623.0462
0.0000000 0.4000000 0.0000000
268.1621
302.9905
445.4562
548.8627
569.2858
603.3085
0.0000000 0.4000000 0.1000000
284.4003
302.2403
437.9230
522.1328
574.3371
629.3010
0.0000000 0.4000000 0.2000000
319.2464
323.6650
415.3346
456.3979
611.8393
648.7733
0.0000000 0.4000000 0.3000000
368.9879
369.3293
379.2606
385.2774
641.3370
645.5808
0.0000000 0.4000000 0.4000000
328.5506
334.5745
407.7075
439.0960
620.4342
650.1713
0.0000000 0.4000000 -0.5000000
292.4389
303.6224
433.8306
507.5576
582.7788
635.8252
0.0000000 -0.5000000 0.0000000
285.0736
348.9686
459.8700
530.7791
583.6282
633.0720
0.0000000 -0.5000000 0.1000000
300.5764
338.7088
452.1746
502.3778
605.1035
648.5894
0.0000000 -0.5000000 0.2000000
335.6626
338.6456
429.4234
444.6414
641.6993
667.8538
0.0000000 -0.5000000 0.3000000
368.9656
381.9021
383.3271
393.4059
666.2515
669.1809
0.0000000 -0.5000000 0.4000000
340.1255
349.3983
422.0296
428.8765
649.2865
670.1225
0.0000000 -0.5000000 -0.5000000
308.3152
335.6428
448.0229
489.9655
613.9907
654.2044
0.1000000 0.1000000 0.0000000
120.4836
129.7542
262.1686
371.4974
412.7008
664.2459
0.1000000 0.1000000 0.1000000
156.3232
166.8451
309.7078
362.1472
400.8471
651.8419
0.1000000 0.1000000 0.2000000
211.7673
234.5304
331.2292
365.8101
418.6614
613.2184
0.1000000 0.1000000 0.3000000
269.5369
281.4335
300.6629
313.7386
523.1894
544.5741
0.1000000 0.1000000 0.4000000
226.0813
250.1752
321.4262
354.4687
445.6713
599.5242
0.1000000 0.1000000 -0.5000000
168.5308
183.4922
332.0283
357.6967
394.4739
645.0248
0.1000000 0.2000000 0.0000000
185.8018
207.3986
357.3578
428.7286
474.2817
640.9243
0.1000000 0.2000000 0.1000000
208.1328
226.3834
376.9889
434.0456
458.8430
634.3964
0.1000000 0.2000000 0.2000000
262.3617
270.0403
373.4480
415.9032
485.7267
611.8975
0.1000000 0.2000000 0.3000000
311.2516
314.0021
353.3217
361.0043
553.5653
567.7220
0.1000000 0.2000000 0.4000000
276.9229
282.0248
367.1149
402.7263
502.7433
603.3732
0.1000000 0.2000000 -0.5000000
219.3097
235.5373
380.9892
440.8396
451.0738
630.6400
0.1000000 0.3000000 0.0000000
252.3967
269.9688
416.4122
503.2254
543.5335
605.1823
0.1000000 0.3000000 0.1000000
254.6615
288.1017
422.0615
502.1358
527.3031
616.5722
0.1000000 0.3000000 0.2000000
283.6805
325.7528
411.8712
450.6998
559.0870
622.1325
0.1000000 0.3000000 0.3000000
335.4904
344.9646
393.2938
399.5880
598.7239
605.9985
0.1000000 0.3000000 0.4000000
295.3224
335.1689
405.5383
436.3734
569.5077
620.3672
0.1000000 0.3000000 -0.5000000
258.5400
296.2008
422.1558
493.1377
530.8863
619.5222
0.1000000 0.4000000 0.0000000
307.9682
311.7727
454.8296
552.6166
562.5549
599.5022
0.1000000 0.4000000 0.1000000
296.5322
330.7884
452.3731
516.3550
577.3610
623.4773
0.1000000 0.4000000 0.2000000
302.5220
364.1784
425.4186
467.2552
610.4327
643.6206
0.1000000 0.4000000 0.3000000
342.3372
354.7916
419.2464
427.9102
637.8122
641.6978
0.1000000 0.4000000 0.4000000
309.3129
371.0619
415.8440
457.2474
618.3654
645.2981
0.1000000 0.4000000 -0.5000000
295.1539
338.0815
448.9704
503.7580
584.5504
630.0386
0.2000000 0.2000000 0.0000000
228.9904
240.4914
404.5661
471.2639
524.9563
619.0658
0.2000000 0.2000000 0.1000000
238.5487
260.4658
407.7452
482.1259
506.4048
622.1251
0.2000000 0.2000000 0.2000000
278.3543
303.1157
393.3416
444.6319
536.1281
617.8254
0.2000000 0.2000000 0.3000000
330.8499
337.6567
374.7190
384.1033
583.9570
593.2279
0.2000000 0.2000000 0.4000000
291.4379
314.6231
386.6864
429.6697
548.5018
613.9503
0.2000000 0.2000000 -0.5000000
245.3740
269.4826
406.6171
481.6552
504.8535
622.4804
0.2000000 0.3000000 0.0000000
282.0691
317.7719
430.7006
542.4790
556.1391
585.2524
0.2000000 0.3000000 0.1000000
275.8961
331.1461
444.0683
508.2874
556.1132
610.0533
0.2000000 0.3000000 0.2000000
288.7962
359.0698
441.4348
453.4142
582.5030
625.7988
0.2000000 0.3000000 0.3000000
334.6128
347.1730
424.5227
429.6825
613.0302
618.2362
0.2000000 0.3000000 0.4000000
297.4994
363.6186
431.4972
447.4440
590.6090
626.1530
0.2000000 0.3000000 -0.5000000
275.7975
337.4968
447.3785
494.0143
560.5942
615.8092
0.2000000 0.4000000 0.0000000
334.5107
377.3519
467.6872
544.0839
566.0880
594.7346
0.2000000 0.4000000 0.1000000
315.7949
387.7791
481.5711
498.7498
593.2417
608.2993
0.2000000 0.4000000 0.2000000
303.9903
392.1816
450.9513
495.3162
612.9669
632.8325
0.2000000 0.4000000 0.3000000
331.7225
343.5044
470.0684
476.6459
633.0707
635.7112
0.2000000 0.4000000 0.4000000
306.9511
383.1473
451.9753
492.6730
618.6292
635.6730
0.2000000 0.4000000 -0.5000000
310.1698
391.9327
476.6690
494.3564
597.2179
615.6110
0.3000000 0.3000000 0.0000000
316.9588
319.1736
459.2356
556.4652
557.2637
602.8847
0.3000000 0.3000000 0.1000000
301.6658
339.7254
456.7646
514.4868
581.1164
624.3615
0.3000000 0.3000000 0.2000000
303.6249
371.4316
426.6968
471.2662
613.7187
644.6880
0.3000000 0.3000000 0.3000000
340.8349
353.2681
426.7356
435.2839
640.0628
643.6949
0.3000000 0.3000000 0.4000000
309.5594
376.4683
417.8632
462.5654
621.4124
646.5613
0.3000000 0.3000000 -0.5000000
299.3085
346.9064
452.8661
502.8109
588.3609
630.8071
P = 5113.9100	V = 81.0010	E = -654.80122686000000	S_el = 0.00001641897167
0.0000000 0.0000000 0.0000000
0.0000
0.0000
0.0000
403.3547
403.3547
809.8311
0.0000000 0.0000000 0.1000000
100.6071
100.6071
229.8960
390.6024
390.6024
790.0920
0.0000000 0.0000000 0.2000000
190.8222
190.8222
351.1077
351.1077
434.7306
730.6616
0.0000000 0.0000000 0.3000000
270.3471
270.3471
288.0362
288.0362
596.5711
628.3892
0.0000000 0.0000000 0.4000000
210.9457
210.9457
337.6838
337.6838
478.2510
710.0604
0.0000000 0.0000000 -0.5000000
123.5457
123.5457
282.6076
383.5358
383.5358
779.3964
0.0000000 0.1000000 0.0000000
100.0764
107.0424
226.4029
418.0230
446.2646
799.4206
0.0000000 0.1000000 0.1000000
147.8562
165.8642
305.2299
406.0174
433.1810
781.4966
0.0000000 0.1000000 0.2000000
221.2724
243.6892
369.0616
393.5472
463.7000
727.5525
0.0000000 0.1000000 0.3000000
293.8832
310.3089
316.1097
332.7552
606.2051
634.8775
0.0000000 0.1000000 0.4000000
239.3184
261.6101
356.5387
380.4242
501.2386
708.8547
0.0000000 0.1000000 -0.5000000
164.7869
185.5050
341.5013
399.3855
426.0278
771.7881
0.0000000 0.2000000 0.0000000
194.7412
200.6944
420.9493
452.8837
541.0636
769.3339
0.0000000 0.2000000 0.1000000
226.6485
232.2447
442.1029
459.6256
524.9078
758.4624
0.0000000 0.2000000 0.2000000
283.3934
307.9033
410.4130
474.8020
550.9931
724.1538
0.0000000 0.2000000 0.3000000
345.4983
359.7216
387.4730
406.0375
642.8768
662.1738
0.0000000 0.2000000 0.4000000
298.5566
327.3188
399.6291
459.8543
574.1955
711.8370
0.0000000 0.2000000 -0.5000000
238.7947
249.0250
436.5962
477.3677
516.8730
752.4539
0.0000000 0.3000000 0.0000000
271.5792
278.8954
490.9932
561.6181
638.1644
723.4122
0.0000000 0.3000000 0.1000000
291.8663
294.9245
481.5666
579.8489
613.1527
733.9728
0.0000000 0.3000000 0.2000000
340.4835
345.4146
453.3705
527.5266
651.2853
736.7543
0.0000000 0.3000000 0.3000000
395.8989
408.5802
422.6512
443.3048
703.5208
713.2646
0.0000000 0.3000000 0.4000000
353.9443
362.2784
443.8851
507.9605
665.1031
733.6504
0.0000000 0.3000000 -0.5000000
301.8772
303.9858
476.4441
576.8150
613.6731
736.5723
0.0000000 0.4000000 0.0000000
315.1249
350.5666
520.8490
645.8370
669.2506
709.9647
0.0000000 0.4000000 0.1000000
333.3486
351.5388
511.7519
611.1942
677.2948
742.2051
0.0000000 0.4000000 0.2000000
373.0987
378.0011
484.8813
533.4967
721.5588
766.5228
0.0000000 0.4000000 0.3000000
430.0216
431.8979
442.3322
450.1921
757.1941
762.4269
0.0000000 0.4000000 0.4000000
383.8808
390.6863
475.8896
513.1108
731.8610
768.2260
0.0000000 0.4000000 -0.5000000
342.4424
353.7510
506.8409
593.9041
687.1682
750.3764
0.0000000 -0.5000000 0.0000000
335.4919
403.7173
538.0446
621.1216
686.3119
747.5920
0.0000000 -0.5000000 0.1000000
352.8091
394.2956
528.8347
588.0865
711.8657
766.4760
0.0000000 -0.5000000 0.2000000
393.4543
396.0067
501.7996
520.8340
756.1908
790.0222
0.0000000 -0.5000000 0.3000000
432.5072
447.1786
448.0622
459.4405
786.9810
790.8317
0.0000000 -0.5000000 0.4000000
398.8618
408.3599
492.5953
502.8765
765.5765
792.6769
0.0000000 -0.5000000 -0.5000000
361.5204
391.6118
523.8762
573.6491
722.5243
773.3804
0.1000000 0.1000000 0.0000000
140.1274
151.7980
309.4390
433.5872
481.1150
789.1932
0.1000000 0.1000000 0.1000000
183.1703
193.5859
365.5615
422.8426
467.2691
773.3152
0.1000000 0.1000000 0.2000000
247.7079
272.3439
386.4235
425.8360
493.9375
725.3727
0.1000000 0.1000000 0.3000000
314.5540
328.2322
349.3183
364.4821
617.3643
642.7982
0.1000000 0.1000000 0.4000000
264.2794
290.4980
374.9596
412.4212
525.7449
708.7094
0.1000000 0.1000000 -0.5000000
197.4696
212.9408
391.3654
418.0975
459.7937
764.7047
0.1000000 0.2000000 0.0000000
215.5942
242.3062
419.4798
503.6497
553.1386
759.6301
0.1000000 0.2000000 0.1000000
241.7638
264.2091
440.5903
511.5328
534.8697
751.5204
0.1000000 0.2000000 0.2000000
304.9712
314.2792
435.0311
483.7642
573.5717
723.9529
0.1000000 0.2000000 0.3000000
362.1826
364.9883
410.7370
419.3023
653.8395
670.7422
0.1000000 0.2000000 0.4000000
321.9497
327.9852
427.5897
468.1621
593.6373
713.6023
0.1000000 0.2000000 -0.5000000
254.8001
274.7459
444.5185
519.6549
526.1820
746.8783
0.1000000 0.3000000 0.0000000
292.3856
315.4644
486.2460
592.9887
636.8009
714.4395
0.1000000 0.3000000 0.1000000
296.1166
335.9945
492.1033
587.1750
622.0455
728.3669
0.1000000 0.3000000 0.2000000
330.1417
379.2352
479.9064
525.2589
660.1838
735.3377
0.1000000 0.3000000 0.3000000
389.9135
400.8771
458.4170
465.6393
707.0626
715.7964
0.1000000 0.3000000 0.4000000
343.5628
390.0363
472.5448
508.4345
672.4238
733.1865
0.1000000 0.3000000 -0.5000000
300.8269
345.2885
492.0536
575.6185
627.0561
732.0289
0.1000000 0.4000000 0.0000000
360.4706
360.7245
530.8853
649.9927
660.8366
706.1999
0.1000000 0.4000000 0.1000000
345.2507
385.9693
527.7121
604.3042
681.3558
735.0478
0.1000000 0.4000000 0.2000000
353.1314
424.4935
496.4717
546.3454
720.2120
760.1079
0.1000000 0.4000000 0.3000000
399.1077
413.3929
489.8126
499.8818
753.0165
757.7538
0.1000000 0.4000000 0.4000000
361.0441
432.2278
485.6413
534.4588
729.6464
762.1865
0.1000000 0.4000000 -0.5000000
343.9234
394.5221
523.6805
589.4125
689.7836
743.1960
0.2000000 0.2000000 0.0000000
265.8237
280.9255
472.7841
555.3356
613.9677
731.9706
0.2000000 0.2000000 0.1000000
277.5603
303.8338
475.6328
565.9967
594.2824
735.7993
0.2000000 0.2000000 0.2000000
323.8779
352.9521
458.3905
517.5914
632.9385
730.6064
0.2000000 0.2000000 0.3000000
384.8216
392.6676
436.1849
446.8279
689.6329
700.7701
0.2000000 0.2000000 0.4000000
339.0137
366.1854
450.5896
499.9659
647.5191
725.8675
0.2000000 0.2000000 -0.5000000
285.5924
314.2224
474.1314
562.4598
595.3076
736.2618
0.2000000 0.3000000 0.0000000
326.5193
370.6211
502.6125
637.4727
654.4498
689.3404
0.2000000 0.3000000 0.1000000
320.6054
385.7159
517.4468
593.9097
657.6849
719.3578
0.2000000 0.3000000 0.2000000
336.3578
417.2961
514.8502
528.8695
688.2106
739.0908
0.2000000 0.3000000 0.3000000
389.0358
403.3985
495.3327
501.1092
724.0087
730.2001
0.2000000 0.3000000 0.4000000
346.4031
422.3438
503.7611
521.5567
697.6488
739.5931
0.2000000 0.3000000 -0.5000000
320.8312
392.9128
521.1629
577.0352
662.8974
726.5264
0.2000000 0.4000000 0.0000000
386.9751
440.2307
545.4372
637.8034
662.9527
703.4763
0.2000000 0.4000000 0.1000000
366.8682
451.6545
561.3461
583.3015
700.6292
716.2476
0.2000000 0.4000000 0.2000000
354.7598
455.5588
528.0794
577.9707
723.9512
746.2976
0.2000000 0.4000000 0.3000000
386.9187
400.4115
549.1682
556.6935
747.2813
750.3482
0.2000000 0.4000000 0.4000000
358.3212
445.4019
528.9665
575.0142
730.4858
749.9087
0.2000000 0.4000000 -0.5000000
360.8526
456.1334
556.7900
577.1219
705.7375
724.8902
0.3000000 0.3000000 0.0000000
369.5226
370.6250
535.9345
654.2398
654.2863
710.6021
0.3000000 0.3000000 0.1000000
351.1153
396.4109
532.7484
602.1844
685.5711
736.1435
0.3000000 0.3000000 0.2000000
354.4827
432.8141
498.1964
551.0950
724.0337
761.3266
0.3000000 0.3000000 0.3000000
397.4783
411.7379
498.6361
508.5757
755.6541
760.0916
0.3000000 0.3000000 0.4000000
361.4236
438.3590
488.3113
540.7344
733.2008
763.6414
0.3000000 0.3000000 -0.5000000
348.7065
404.7950
528.1683
588.3984
694.1294
744.1017
weight
   0.0000000   0.0000000   0.0000000   0.0020000
   0.0000000   0.0000000   0.1000000   0.0040000
   0.0000000   0.0000000   0.2000000   0.0040000
   0.0000000   0.0000000   0.3000000   0.0040000
   0.0000000   0.0000000   0.4000000   0.0040000
   0.0000000   0.0000000  -0.5000000   0.0020000
   0.0000000   0.1000000   0.0000000   0.0120000
   0.0000000   0.1000000   0.1000000   0.0240000
   0.0000000   0.1000000   0.2000000   0.0240000
   0.0000000   0.1000000   0.3000000   0.0240000
   0.0000000   0.1000000   0.4000000   0.0240000
   0.0000000   0.1000000  -0.5000000   0.0120000
   0.0000000   0.2000000   0.0000000   0.0120000
   0.0000000   0.2000000   0.1000000   0.0240000
   0.0000000   0.2000000   0.2000000   0.0240000
   0.0000000   0.2000000   0.3000000   0.0240000
   0.0000000   0.2000000   0.4000000   0.0240000
   0.0000000   0.2000000  -0.5000000   0.0120000
   0.0000000   0.3000000   0.0000000   0.0120000
   0.0000000   0.3000000   0.1000000   0.0240000
   0.0000000   0.3000000   0.2000000   0.0240000
   0.0000000   0.3000000   0.3000000   0.0240000
   0.0000000   0.3000000   0.4000000   0.0240000
   0.0000000   0.3000000  -0.5000000   0.0120000
   0.0000000   0.4000000   0.0000000   0.0120000
   0.0000000   0.4000000   0.1000000   0.0240000
   0.0000000   0.4000000   0.2000000   0.0240000
   0.0000000   0.4000000   0.3000000   0.0240000
   0.0000000   0.4000000   0.4000000   0.0240000
   0.0000000   0.4000000  -0.5000000   0.0120000
   0.0000000  -0.5000000   0.0000000   0.0060000
   0.0000000  -0.5000000   0.1000000   0.0120000
   0.0000000  -0.5000000   0.2000000   0.0120000
   0.0000000  -0.5000000   0.3000000   0.0120000
   0.0000000  -0.5000000   0.4000000   0.0120000
   0.0000000  -0.5000000  -0.5000000   0.0060000
   0.1000000   0.1000000   0.0000000   0.0120000
   0.1000000   0.1000000   0.1000000   0.0240000
   0.1000000   0.1000000   0.2000000   0.0240000
   0.1000000   0.1000000   0.3000000   0.0240000
   0.1000000   0.1000000   0.4000000   0.0240000
   0.1000000   0.1000000  -0.5000000   0.0120000
   0.1000000   0.2000000   0.0000000   0.0240000
   0.1000000   0.2000000   0.1000000   0.0480000
   0.1000000   0.2000000   0.2000000   0.0480000
   0.1000000   0.2000000   0.3000000   0.0480000
   0.1000000   0.2000000   0.4000000   0.0480000
   0.1000000   0.2000000  -0.5000000   0.0240000
   0.1000000   0.3000000   0.0000000   0.0240000
   0.1000000   0.3000000   0.1000000   0.0480000
   0.1000000   0.3000000   0.2000000   0.0480000
   0.1000000   0.3000000   0.3000000   0.0480000
   0.1000000   0.3000000   0.4000000   0.0480000
   0.1000000   0.3000000  -0.5000000   0.0240000
   0.1000000   0.4000000   0.0000000   0.0240000
   0.1000000   0.4000000   0.1000000   0.0480000
   0.1000000   0.4000000   0.2000000   0.0480000
   0.1000000   0.4000000   0.3000000   0.0480000
   0.1000000   0.4000000   0.4000000   0.0480000
   0.1000000   0.4000000  -0.5000000   0.0240000
   0.2000000   0.2000000   0.0000000   0.0120000
   0.2000000   0.2000000   0.1000000   0.0240000
   0.2000000   0.2000000   0.2000000   0.0240000
   0.2000000   0.2000000   0.3000000   0.0240000
   0.2000000   0.2000000   0.4000000   0.0240000
   0.2000000   0.2000000  -0.5000000   0.0120000
   0.2000000   0.3000000   0.0000000   0.0240000
   0.2000000   0.3000000   0.1000000   0.0480000
   0.2000000   0.3000000   0.2000000   0.0480000
   0.2000000   0.3000000   0.3000000   0.0480000
   0.2000000   0.3000000   0.4000000   0.0480000
   0.2000000   0.3000000  -0.5000000   0.0240000
   0.2000000   0.4000000   0.0000000   0.0120000
   0.2000000   0.4000000   0.1000000   0.0240000
   0.2000000   0.4000000   0.2000000   0.0240000
   0.2000000   0.4000000   0.3000000   0.0240000
   0.2000000   0.4000000   0.4000000   0.0240000
   0.2000000   0.4000000  -0.5000000   0.0120000
   0.3000000   0.3000000   0.0000000   0.0120000
   0.3000000   0.3000000   0.1000000   0.0240000
   0.3000000   0.3000000   0.2000000   0.0240000
   0.3000000   0.3000000   0.3000000   0.0240000
   0.3000000   0.3000000   0.4000000   0.0240000
   0.3000000   0.3000000  -0.5000000   0.0120000