Number of volumes (nv), q-vectors (nq), normal mode (np), formula units(nm)
10 84 6 1
P = 207.7300	V = 138.4189	E = -655.32117620000000	S_el = 0.00003929461429
0.0000000 0.0000000 0.0000000
0.0000
0.0000
0.0000
175.9118
175.9118
337.5835
0.0000000 0.0000000 0.1000000
43.0868
43.0868
99.5516
170.0332
170.0332
331.1073
0.0000000 0.0000000 0.2000000
82.8996
82.8996
152.3677
152.3677
186.7467
308.6968
0.0000000 0.0000000 0.3000000
118.1875
118.1875
124.5983
124.5983
254.8933
265.9921
0.0000000 0.0000000 0.4000000
90.2979
90.2979
147.5266
147.5266
201.9803
301.8727
0.0000000 0.0000000 -0.5000000
51.3860
51.3860
118.2524
167.4396
167.4396
328.0720
0.0000000 0.1000000 0.0000000
43.1628
46.8420
94.9342
183.0188
195.7670
334.1558
0.0000000 0.1000000 0.1000000
64.1987
77.0078
127.2814
177.5794
190.1907
327.9879
0.0000000 0.1000000 0.2000000
96.6037
110.7118
161.0275
173.5455
196.2315
306.9743
0.0000000 0.1000000 0.3000000
128.8671
134.8732
141.9276
147.7918
257.3535
267.5183
0.0000000 0.1000000 0.4000000
103.2164
117.0933
156.4641
169.0242
209.6238
300.6306
0.0000000 0.1000000 -0.5000000
70.3012
84.2484
140.2419
175.1646
187.7401
325.1178
0.0000000 0.2000000 0.0000000
83.7103
89.0583
177.0853
199.4820
238.0398
324.3279
0.0000000 0.2000000 0.1000000
99.0032
105.8440
193.1006
194.3874
231.9498
319.6950
0.0000000 0.2000000 0.2000000
124.5334
142.6640
180.6032
213.3646
230.1436
304.3777
0.0000000 0.2000000 0.3000000
152.3181
157.6009
178.4238
185.0192
269.6054
276.5823
0.0000000 0.2000000 0.4000000
130.1134
150.0690
176.6035
208.4944
238.2926
299.8373
0.0000000 0.2000000 -0.5000000
103.4905
112.8644
192.8461
198.8236
229.3113
317.5680
0.0000000 0.3000000 0.0000000
117.8497
124.5528
216.5939
238.0680
278.0841
309.3812
0.0000000 0.3000000 0.1000000
127.5738
132.7060
212.7091
248.5024
266.6459
311.4095
0.0000000 0.3000000 0.2000000
150.3370
157.2666
200.3940
237.3015
273.1745
309.5647
0.0000000 0.3000000 0.3000000
175.3916
180.1204
193.3216
200.9763
294.8420
298.2761
0.0000000 0.3000000 0.4000000
155.3719
163.8786
196.9078
230.5543
277.9077
308.1192
0.0000000 0.3000000 -0.5000000
131.4614
136.3359
210.9510
252.0606
262.6564
311.6504
0.0000000 0.4000000 0.0000000
136.8404
158.7359
229.0040
276.2664
291.4441
304.4936
0.0000000 0.4000000 0.1000000
145.9640
157.7861
225.5009
269.7156
286.7802
316.0466
0.0000000 0.4000000 0.2000000
165.3543
168.5977
214.4688
236.7651
304.2478
322.8417
0.0000000 0.4000000 0.3000000
191.1432
193.4070
196.0389
200.1354
318.0031
319.7696
0.0000000 0.4000000 0.4000000
169.9483
172.8623
211.3263
229.4704
307.5471
323.0203
0.0000000 0.4000000 -0.5000000
149.5952
158.2048
223.9263
263.8407
290.0031
318.1512
0.0000000 -0.5000000 0.0000000
145.8297
184.2612
235.5319
274.8061
295.2470
316.7314
0.0000000 -0.5000000 0.1000000
154.5518
177.3492
232.1897
259.4567
304.6308
323.9473
0.0000000 -0.5000000 0.2000000
173.0637
176.1864
221.7915
228.6034
320.2627
331.5878
0.0000000 -0.5000000 0.3000000
190.2019
195.5395
199.8510
203.9566
330.4019
331.4546
0.0000000 -0.5000000 0.4000000
175.0763
180.5833
218.8196
221.8175
322.8935
332.2426
0.0000000 -0.5000000 -0.5000000
158.0799
175.4883
230.7026
254.0062
307.8025
325.9152
0.1000000 0.1000000 0.0000000
60.9218
66.5718
129.6965
190.2773
211.6049
330.8054
0.1000000 0.1000000 0.1000000
80.1322
89.4687
152.3282
185.3430
206.0457
325.0308
0.1000000 0.1000000 0.2000000
108.6669
125.4462
169.4673
189.4577
207.1926
305.6360
0.1000000 0.1000000 0.3000000
138.3387
143.5883
158.5745
164.0626
260.6501
269.7850
0.1000000 0.1000000 0.4000000
114.7192
131.9725
165.3035
184.9814
218.5941
299.8309
0.1000000 0.1000000 -0.5000000
85.3083
97.1801
161.6174
183.2382
203.6085
322.3608
0.1000000 0.2000000 0.0000000
95.2197
107.3326
179.3821
217.2716
243.6261
321.1986
0.1000000 0.2000000 0.1000000
109.4088
117.5226
191.2281
217.3178
236.9649
317.2491
0.1000000 0.2000000 0.2000000
137.9981
142.0207
192.7252
217.6056
239.2999
304.0651
0.1000000 0.2000000 0.3000000
161.1182
163.2062
186.4568
190.5996
273.6855
279.8112
0.1000000 0.2000000 0.4000000
143.4982
147.8780
190.2214
212.5020
246.2884
300.1272
0.1000000 0.2000000 -0.5000000
114.6983
121.5782
194.2036
218.6584
234.1696
315.4289
0.1000000 0.3000000 0.0000000
130.9906
139.6390
214.7174
251.2546
277.2532
306.5627
0.1000000 0.3000000 0.1000000
132.8822
149.7303
218.1061
255.3449
265.8161
309.6325
0.1000000 0.3000000 0.2000000
149.7319
169.6570
213.1324
235.7595
276.3224
309.1678
0.1000000 0.3000000 0.3000000
176.8645
180.5027
205.0967
208.1025
296.1311
299.2726
0.1000000 0.3000000 0.4000000
154.9560
173.7654
210.6242
229.6575
280.5844
307.9950
0.1000000 0.3000000 -0.5000000
134.8257
153.2765
218.2852
255.4729
263.7268
310.1544
0.1000000 0.4000000 0.0000000
158.8071
164.0122
235.4371
277.7773
288.8679
301.9660
0.1000000 0.4000000 0.1000000
154.7555
171.9351
234.1760
267.0526
287.5350
313.5170
0.1000000 0.4000000 0.2000000
158.2030
189.4912
221.1190
240.9075
303.3651
320.6899
0.1000000 0.4000000 0.3000000
179.9142
185.4372
216.7330
220.3568
316.4460
318.1079
0.1000000 0.4000000 0.4000000
161.1874
192.7771
216.8713
236.4356
306.4909
320.9611
0.1000000 0.4000000 -0.5000000
154.2024
174.9569
232.9004
261.7580
290.3078
315.6796
0.2000000 0.2000000 0.0000000
117.7744
124.2454
207.5930
235.8011
268.4813
312.2228
0.2000000 0.2000000 0.1000000
124.0603
135.3132
210.1945
241.5097
259.2722
311.8735
0.2000000 0.2000000 0.2000000
146.4706
158.3917
203.1647
233.0747
264.7909
306.7956
0.2000000 0.2000000 0.3000000
172.7091
175.7082
196.9560
201.8134
288.6619
292.6394
0.2000000 0.2000000 0.4000000
152.0985
163.5663
200.4308
227.0033
269.8311
304.7572
0.2000000 0.2000000 -0.5000000
127.3800
139.3030
209.9482
244.3893
255.7432
311.4329
0.2000000 0.3000000 0.0000000
147.4993
165.5050
223.0958
270.3114
283.0238
298.4854
0.2000000 0.3000000 0.1000000
144.5403
172.8972
230.0515
263.3444
274.9243
307.3486
0.2000000 0.3000000 0.2000000
152.2496
187.8282
229.3725
235.4476
287.9394
311.6028
0.2000000 0.3000000 0.3000000
177.2762
182.7093
219.9964
222.0015
303.4940
305.8150
0.2000000 0.3000000 0.4000000
156.1917
190.0555
225.6582
232.0336
291.3257
311.2611
0.2000000 0.3000000 -0.5000000
144.5733
175.6958
231.4842
257.9247
276.5324
308.9430
0.2000000 0.4000000 0.0000000
176.9609
196.3249
243.8139
281.1964
288.3380
295.4871
0.2000000 0.4000000 0.1000000
166.5052
202.5023
250.3310
258.9130
293.8175
307.6839
0.2000000 0.4000000 0.2000000
159.4154
206.7569
232.7575
254.8302
304.1959
316.7847
0.2000000 0.4000000 0.3000000
174.6330
179.9987
241.9760
244.6910
314.7609
316.0436
0.2000000 0.4000000 0.4000000
160.5827
202.9418
232.7603
253.5084
306.6646
317.4274
0.2000000 0.4000000 -0.5000000
163.8084
204.5998
248.7752
256.0682
295.3388
310.2211
0.3000000 0.3000000 0.0000000
163.4199
168.3973
237.8892
280.1328
286.5595
303.2000
0.3000000 0.3000000 0.1000000
157.7479
176.5925
236.6489
266.0620
289.6566
313.8945
0.3000000 0.3000000 0.2000000
158.7667
193.4407
221.8520
242.5152
305.1678
321.3257
0.3000000 0.3000000 0.3000000
179.0647
184.6168
220.3943
223.9493
317.6878
319.2385
0.3000000 0.3000000 0.4000000
161.3374
196.1035
217.6081
238.6804
308.1862
321.6844
0.3000000 0.3000000 -0.5000000
156.6973
179.5984
235.2217
260.9842
292.4345
316.0689
P = 407.5300	V = 130.1411	E = -655.32296040000000	S_el = 0.00003661195286
0.0000000 0.0000000 0.0000000
0.0000
0.0000
0.0000
195.6940
195.6940
378.7230
0.0000000 0.0000000 0.1000000
49.3778
49.3778
109.9215
189.2165
189.2165
371.2775
0.0000000 0.0000000 0.2000000
93.5553
93.5553
169.6649
169.6649
207.5771
345.9378
0.0000000 0.0000000 0.3000000
131.9219
131.9219
139.1424
139.1424
284.8083
297.7811
0.0000000 0.0000000 0.4000000
101.8809
101.8809
164.1347
164.1347
225.3391
337.9957
0.0000000 0.0000000 -0.5000000
59.0095
59.0095
131.3924
186.2471
186.2471
367.7000
0.0000000 0.1000000 0.0000000
47.3220
51.8053
106.6233
203.4848
217.9562
374.7985
0.0000000 0.1000000 0.1000000
72.2039
84.4887
142.5535
197.4842
211.7391
367.7253
0.0000000 0.1000000 0.2000000
108.3427
123.1458
179.1802
193.1426
218.9737
344.0124
0.0000000 0.1000000 0.3000000
143.6288
150.4155
157.8576
164.5558
287.8266
299.6574
0.0000000 0.1000000 0.4000000
115.8353
130.5326
173.9725
187.9380
234.4795
336.6471
0.0000000 0.1000000 -0.5000000
79.3290
93.1147
157.2608
194.7195
208.9048
364.3496
0.0000000 0.2000000 0.0000000
92.7378
97.8303
198.9382
221.6710
265.6536
363.4894
0.0000000 0.2000000 0.1000000
110.4426
115.6110
216.0861
216.9199
258.6779
358.2683
0.0000000 0.2000000 0.2000000
138.7876
157.1031
200.7911
237.3515
258.4061
341.2285
0.0000000 0.2000000 0.3000000
169.4359
175.4435
197.6160
205.3100
302.3513
310.3728
0.0000000 0.2000000 0.4000000
145.1560
165.7689
196.2307
231.6578
267.7548
336.0250
0.0000000 0.2000000 -0.5000000
115.6125
123.6951
214.2398
223.6268
255.5525
355.8061
0.0000000 0.3000000 0.0000000
131.4682
136.4434
240.8644
267.6027
311.4470
346.1862
0.0000000 0.3000000 0.1000000
142.1126
145.5404
236.5174
279.1537
298.1393
348.9237
0.0000000 0.3000000 0.2000000
167.2091
173.1861
222.8323
264.0344
307.2175
347.4814
0.0000000 0.3000000 0.3000000
194.9707
200.3807
213.9008
222.8342
331.3895
335.3057
0.0000000 0.3000000 0.4000000
172.9644
180.8926
218.8401
256.1056
312.6797
345.9177
0.0000000 0.3000000 -0.5000000
146.5318
149.7485
234.4878
282.7695
293.8394
349.3322
0.0000000 0.4000000 0.0000000
152.7188
174.5862
255.1142
310.8266
325.3818
342.3391
0.0000000 0.4000000 0.1000000
162.6701
173.6748
251.1347
300.9957
322.7909
355.0283
0.0000000 0.4000000 0.2000000
183.4028
186.6152
238.7116
263.5329
342.5277
363.1233
0.0000000 0.4000000 0.3000000
212.5303
214.4061
217.9538
222.0865
358.0522
360.0676
0.0000000 0.4000000 0.4000000
188.4469
191.8223
235.0721
255.0007
346.3831
363.4244
0.0000000 0.4000000 -0.5000000
166.7831
174.2182
249.2892
294.0651
326.5584
357.5412
0.0000000 -0.5000000 0.0000000
162.8104
203.2106
262.8238
306.1547
332.4283
357.1760
0.0000000 -0.5000000 0.1000000
172.3743
195.6964
258.9752
289.1272
343.0095
365.0062
0.0000000 -0.5000000 0.2000000
191.8928
195.5857
247.1005
254.4425
360.8832
373.7521
0.0000000 -0.5000000 0.3000000
210.9449
217.3161
222.1875
227.0453
372.5862
373.8153
0.0000000 -0.5000000 0.4000000
193.7652
201.1482
243.6174
246.5607
364.0133
374.5688
0.0000000 -0.5000000 -0.5000000
176.3800
193.6264
257.2053
282.8040
346.7316
367.2813
0.1000000 0.1000000 0.0000000
66.6112
73.8652
145.6709
211.5355
235.7675
370.9514
0.1000000 0.1000000 0.1000000
89.6255
97.6993
171.0421
206.1199
229.5023
364.3541
0.1000000 0.1000000 0.2000000
121.4583
138.7334
188.4688
210.8010
231.9230
342.5364
0.1000000 0.1000000 0.3000000
154.0336
159.9504
176.0685
182.3826
291.7993
302.3836
0.1000000 0.1000000 0.4000000
128.3447
146.3754
183.7296
205.6125
245.0445
335.8185
0.1000000 0.1000000 -0.5000000
95.6544
106.6922
181.6230
203.7518
226.6571
361.2244
0.1000000 0.2000000 0.0000000
103.9546
119.4726
200.6976
242.6433
271.9776
359.8639
0.1000000 0.2000000 0.1000000
119.7758
130.6054
213.2536
243.4887
264.2866
355.4730
0.1000000 0.2000000 0.2000000
153.1934
156.6880
214.1170
242.0922
268.9186
340.9378
0.1000000 0.2000000 0.3000000
179.0370
181.2141
206.8009
211.5107
307.1232
314.1422
0.1000000 0.2000000 0.4000000
159.7242
163.3410
211.2809
236.0878
276.9336
336.4524
0.1000000 0.2000000 -0.5000000
126.0644
135.0836
216.2565
245.5427
260.8990
353.3902
0.1000000 0.3000000 0.0000000
143.6601
155.4259
238.9742
282.3947
310.5370
342.8713
0.1000000 0.3000000 0.1000000
145.9641
166.3219
242.4725
286.6511
297.6097
346.8935
0.1000000 0.3000000 0.2000000
164.8948
188.4040
236.9766
262.3295
310.9409
347.0717
0.1000000 0.3000000 0.3000000
195.7733
200.1303
227.8759
231.2812
332.9271
336.4931
0.1000000 0.3000000 0.4000000
170.9978
193.0968
234.1043
255.1853
315.8356
345.8308
0.1000000 0.3000000 -0.5000000
148.2029
170.3809
242.6378
285.6580
296.1799
347.6492
0.1000000 0.4000000 0.0000000
176.9850
180.4550
262.1497
312.6797
322.2992
339.5049
0.1000000 0.4000000 0.1000000
170.8515
190.8416
260.7135
297.9436
323.8049
352.1038
0.1000000 0.4000000 0.2000000
174.4160
210.6334
245.9663
268.4395
341.5973
360.6428
0.1000000 0.4000000 0.3000000
198.9223
205.3745
241.3412
245.5272
356.2677
358.1532
0.1000000 0.4000000 0.4000000
177.9015
214.3276
241.0562
263.2967
345.2247
361.0535
0.1000000 0.4000000 -0.5000000
170.0596
194.4656
259.2237
291.7034
327.0517
354.6881
0.2000000 0.2000000 0.0000000
129.6496
137.6691
231.2168
264.6147
300.4069
349.4623
0.2000000 0.2000000 0.1000000
136.5350
149.9350
233.6789
271.3928
289.6971
349.3823
0.2000000 0.2000000 0.2000000
161.8004
175.4430
225.8307
259.3056
297.8149
344.2538
0.2000000 0.2000000 0.3000000
191.6364
195.0367
218.4471
223.9703
324.3472
328.8802
0.2000000 0.2000000 0.4000000
168.4150
181.3396
222.7040
252.1707
303.6084
342.0032
0.2000000 0.2000000 -0.5000000
140.3569
154.5058
233.3261
274.4408
285.8080
348.9792
0.2000000 0.3000000 0.0000000
161.9817
184.1916
248.3067
304.4471
317.0886
333.4256
0.2000000 0.3000000 0.1000000
158.7273
192.2571
255.8472
294.0998
309.6572
344.4110
0.2000000 0.3000000 0.2000000
167.4417
208.6696
255.2266
262.0728
324.2568
349.9733
0.2000000 0.3000000 0.3000000
195.7782
202.1754
244.9312
247.2556
341.4130
344.0232
0.2000000 0.3000000 0.4000000
172.0493
211.1265
250.9215
258.1870
328.1228
349.7009
0.2000000 0.3000000 -0.5000000
158.7780
195.4368
257.4670
287.5611
311.6292
346.4388
0.2000000 0.4000000 0.0000000
194.8889
218.7158
271.5891
313.6171
323.9109
332.5397
0.2000000 0.4000000 0.1000000
183.2837
225.4130
278.8080
288.6238
331.3202
345.1997
0.2000000 0.4000000 0.2000000
175.4195
229.3352
259.5859
284.2884
342.7164
356.0555
0.2000000 0.4000000 0.3000000
192.6456
198.9050
270.0674
273.1981
354.2981
355.7167
0.2000000 0.4000000 0.4000000
176.8143
224.7227
259.7263
282.8374
345.5132
356.9133
0.2000000 0.4000000 -0.5000000
180.1822
227.7471
276.9803
285.3516
333.0683
348.2686
0.3000000 0.3000000 0.0000000
182.1573
185.3130
264.9210
315.3478
319.6033
341.0112
0.3000000 0.3000000 0.1000000
174.0823
196.1482
263.5021
296.7734
326.2181
352.6256
0.3000000 0.3000000 0.2000000
175.0022
215.0475
246.7802
270.3355
343.6530
361.4128
0.3000000 0.3000000 0.3000000
197.9196
204.3981
245.5278
249.6364
357.7038
359.4631
0.3000000 0.3000000 0.4000000
178.0126
217.9632
241.9380
265.9332
347.1575
361.9214
0.3000000 0.3000000 -0.5000000
172.7468
199.7243
261.8272
290.8263
329.4639
355.2096
P = 705.8700	V = 121.3918	E = -655.31104384000000	S_el = 0.00003366356571
0.0000000 0.0000000 0.0000000
0.0000
0.0000
0.0000
219.4650
219.4650
428.8258
0.0000000 0.0000000 0.1000000
55.5517
55.5517
123.4430
212.1955
212.1955
420.2359
0.0000000 0.0000000 0.2000000
105.0106
105.0106
190.3055
190.3055
233.8361
391.3815
0.0000000 0.0000000 0.3000000
147.8634
147.8634
156.2199
156.2199
321.5931
336.8320
0.0000000 0.0000000 0.4000000
114.6484
114.6484
183.8972
183.8972
254.6844
382.0495
0.0000000 0.0000000 -0.5000000
66.7140
66.7140
148.4793
208.7365
208.7365
415.9797
0.0000000 0.1000000 0.0000000
52.9954
57.8356
120.5478
228.0814
244.5654
424.2862
0.0000000 0.1000000 0.1000000
80.9041
93.7159
161.2694
221.3416
237.5091
416.1600
0.0000000 0.1000000 0.2000000
121.4552
137.4188
200.8690
216.4951
247.2865
389.2379
0.0000000 0.1000000 0.3000000
160.9297
168.7815
176.5494
184.3530
325.2598
339.1201
0.0000000 0.1000000 0.4000000
130.1492
146.0569
194.8444
210.4227
265.4229
380.6062
0.0000000 0.1000000 -0.5000000
89.1859
103.7400
178.3858
218.1219
234.1745
412.1586
0.0000000 0.2000000 0.0000000
104.2916
108.8346
224.9433
248.3227
298.6381
411.1646
0.0000000 0.2000000 0.1000000
123.6226
128.5697
242.7218
244.7724
290.5614
405.2886
0.0000000 0.2000000 0.2000000
155.4126
174.8127
224.9566
265.9434
292.6474
386.2208
0.0000000 0.2000000 0.3000000
189.7646
196.7145
220.5557
229.5721
342.2850
351.6359
0.0000000 0.2000000 0.4000000
162.8171
184.9049
219.6925
259.2233
303.5890
380.1874
0.0000000 0.2000000 -0.5000000
129.6253
137.8036
239.8678
253.3903
286.8216
402.4225
0.0000000 0.3000000 0.0000000
147.3297
152.3947
269.9688
302.6670
351.1472
391.0171
0.0000000 0.3000000 0.1000000
159.2284
162.2802
265.0486
315.5890
335.8189
394.5072
0.0000000 0.3000000 0.2000000
187.2165
193.1471
249.6953
296.1504
348.0294
393.4208
0.0000000 0.3000000 0.3000000
218.3377
224.6062
238.9784
249.4223
375.4408
380.0024
0.0000000 0.3000000 0.4000000
193.8987
202.1062
245.0704
286.8063
354.4491
391.6785
0.0000000 0.3000000 -0.5000000
164.3380
167.1066
262.6736
319.0748
331.4169
395.1018
0.0000000 0.4000000 0.0000000
171.3018
194.9861
286.3785
351.7190
366.7784
387.2372
0.0000000 0.4000000 0.1000000
182.3570
194.0060
281.8131
338.7771
365.6184
401.7264
0.0000000 0.4000000 0.2000000
205.5007
208.6001
267.6879
296.0670
388.1978
411.4199
0.0000000 0.4000000 0.3000000
238.1355
240.0428
244.2611
249.1072
405.9600
408.3077
0.0000000 0.4000000 0.4000000
211.1701
214.8706
263.4223
286.0412
392.7705
411.8640
0.0000000 0.4000000 -0.5000000
187.1076
194.6664
279.6223
330.5595
370.0822
404.7736
0.0000000 -0.5000000 0.0000000
182.7322
226.9996
295.4797
344.4649
376.2948
405.0635
0.0000000 -0.5000000 0.1000000
193.3882
218.7519
290.9986
325.2811
388.4757
413.8658
0.0000000 -0.5000000 0.2000000
215.0711
219.0336
277.2946
286.0880
409.1952
424.0362
0.0000000 -0.5000000 0.3000000
236.6890
244.3854
248.6514
254.5352
422.8409
424.3017
0.0000000 -0.5000000 0.4000000
217.2185
225.5900
273.1609
276.8806
412.9660
425.0522
0.0000000 -0.5000000 -0.5000000
198.0150
216.4306
288.8629
317.8689
392.9303
416.5646
0.1000000 0.1000000 0.0000000
74.5159
82.5335
164.6955
237.0820
264.6971
419.8282
0.1000000 0.1000000 0.1000000
100.3178
108.3864
193.5806
231.0319
257.5224
412.2876
0.1000000 0.1000000 0.2000000
136.0588
154.4887
211.1937
236.2246
262.3441
387.6096
0.1000000 0.1000000 0.3000000
172.5433
179.3592
196.7454
204.1086
329.9937
342.3637
0.1000000 0.1000000 0.4000000
144.0619
163.4389
205.7178
230.1366
277.6681
379.7612
0.1000000 0.1000000 -0.5000000
107.3246
118.7213
205.9171
228.3379
254.1484
408.5947
0.1000000 0.2000000 0.0000000
116.1175
133.6023
226.0368
273.1166
305.7961
406.9396
0.1000000 0.2000000 0.1000000
133.3254
145.9751
239.6071
274.8670
296.8471
402.0647
0.1000000 0.2000000 0.2000000
171.1878
174.5854
239.8192
271.2920
304.6706
385.9301
0.1000000 0.2000000 0.3000000
200.3720
202.7241
231.1934
236.5751
347.8132
355.9851
0.1000000 0.2000000 0.4000000
178.9058
182.2315
236.5419
264.1882
314.0638
380.7534
0.1000000 0.2000000 -0.5000000
140.5476
151.1182
242.7213
277.8169
292.6920
399.6671
0.1000000 0.3000000 0.0000000
160.4371
173.9701
267.9140
319.4997
350.1102
387.1149
0.1000000 0.3000000 0.1000000
162.8162
186.0433
271.6949
323.6861
335.8283
392.1443
0.1000000 0.3000000 0.2000000
183.7884
210.7770
265.6005
294.2639
352.4149
392.9658
0.1000000 0.3000000 0.3000000
218.6217
223.7666
255.3508
259.2714
377.2639
381.4023
0.1000000 0.3000000 0.4000000
190.8786
216.2177
262.2812
285.8742
358.1520
391.6124
0.1000000 0.3000000 -0.5000000
165.3407
190.7491
271.8643
321.3456
335.2402
393.1652
0.1000000 0.4000000 0.0000000
198.4227
201.4333
294.0557
353.9869
363.1030
384.0586
0.1000000 0.4000000 0.1000000
190.8610
213.6707
292.4569
335.2255
366.9627
398.3286
0.1000000 0.4000000 0.2000000
194.6961
235.9274
275.8391
301.7126
387.2174
408.5449
0.1000000 0.4000000 0.3000000
222.2252
229.7256
270.9215
275.8104
403.9211
406.1061
0.1000000 0.4000000 0.4000000
198.7652
240.1345
270.1872
295.6974
391.4976
409.1239
0.1000000 0.4000000 -0.5000000
189.8721
217.9391
290.7073
327.8403
370.8054
401.4608
0.2000000 0.2000000 0.0000000
145.0020
153.9104
259.3827
299.0221
338.4133
394.8194
0.2000000 0.2000000 0.1000000
152.3963
167.5551
261.8420
306.9687
326.0297
395.0353
0.2000000 0.2000000 0.2000000
180.5235
196.0507
253.0309
290.7355
337.4516
389.7546
0.2000000 0.2000000 0.3000000
214.3000
218.2165
244.4195
250.7568
367.4659
372.7403
0.2000000 0.2000000 0.4000000
188.2462
202.8687
249.4183
282.3257
344.2486
387.2107
0.2000000 0.2000000 -0.5000000
156.7434
172.8500
261.3762
309.9985
321.9698
394.6685
0.2000000 0.3000000 0.0000000
180.8294
206.1878
278.3292
345.1487
357.4656
376.0404
0.2000000 0.3000000 0.1000000
176.9963
215.1242
286.7700
330.8490
351.0879
389.2329
0.2000000 0.3000000 0.2000000
186.5697
233.4275
286.3090
294.1192
367.6867
396.2601
0.2000000 0.3000000 0.3000000
218.3970
225.8611
274.8624
277.5638
386.9877
389.9939
0.2000000 0.3000000 0.4000000
191.9212
236.2136
281.3297
289.6154
372.1987
396.0558
0.2000000 0.3000000 -0.5000000
177.0053
218.7970
288.6605
323.0016
353.4876
391.7737
0.2000000 0.4000000 0.0000000
217.5177
245.2012
304.5790
352.9370
366.1328
376.7557
0.2000000 0.4000000 0.1000000
204.4261
252.5501
312.8805
324.4351
375.9515
390.1048
0.2000000 0.4000000 0.2000000
195.5899
256.4059
291.8162
319.5808
388.6700
403.1133
0.2000000 0.4000000 0.3000000
214.9439
222.2187
303.6285
307.2846
401.6234
403.2296
0.2000000 0.4000000 0.4000000
197.2426
250.9784
292.0351
317.9547
391.9101
404.2422
0.2000000 0.4000000 -0.5000000
200.8152
255.1844
310.8694
320.5217
377.9835
393.8561
0.3000000 0.3000000 0.0000000
204.4385
206.6440
297.1906
357.0074
359.9463
385.8871
0.3000000 0.3000000 0.1000000
194.4195
219.6782
295.6145
333.8825
369.6994
398.9755
0.3000000 0.3000000 0.2000000
195.3345
240.8736
276.8031
303.9089
389.5599
409.4411
0.3000000 0.3000000 0.3000000
221.0850
228.6145
275.7019
280.5033
405.5683
407.6067
0.3000000 0.3000000 0.4000000
198.8575
244.1255
271.2890
298.7567
393.6971
410.1332
0.3000000 0.3000000 -0.5000000
192.8141
223.8792
293.6436
326.8690
373.5415
402.0956
P = 952.9800	V = 115.9289	E = -655.29365213000000	S_el = 0.00003177455143
0.0000000 0.0000000 0.0000000
0.0000
0.0000
0.0000
236.2133
236.2133
464.5009
0.0000000 0.0000000 0.1000000
59.4721
59.4721
133.3534
228.3698
228.3698
455.0730
0.0000000 0.0000000 0.2000000
112.6688
112.6688
204.8165
204.8165
252.7694
423.6678
0.0000000 0.0000000 0.3000000
158.9334
158.9334
168.1354
168.1354
347.7938
364.6233
0.0000000 0.0000000 0.4000000
123.2853
123.2853
197.7790
197.7790
275.7869
413.3333
0.0000000 0.0000000 -0.5000000
71.6846
71.6846
160.9629
224.5595
224.5595
450.3153
0.0000000 0.1000000 0.0000000
57.2401
62.1260
130.3375
245.4137
263.2639
459.5048
0.0000000 0.1000000 0.1000000
86.7619
100.3164
174.6121
238.1366
255.5999
450.6171
0.0000000 0.1000000 0.2000000
130.3929
147.2553
216.1180
232.8606
267.5959
421.3838
0.0000000 0.1000000 0.3000000
172.9901
181.6258
189.5514
198.1596
351.9235
367.2127
0.0000000 0.1000000 0.4000000
139.9696
156.7761
209.5088
226.1653
287.5973
411.8416
0.0000000 0.1000000 -0.5000000
95.8295
111.2269
193.5173
234.5893
251.9048
446.1577
0.0000000 0.2000000 0.0000000
112.6654
116.8036
243.2073
267.0979
321.7265
445.0477
0.0000000 0.2000000 0.1000000
132.7562
138.1286
261.1417
264.6946
312.8700
438.7159
0.0000000 0.2000000 0.2000000
166.9761
187.3958
241.9459
285.9226
316.8941
418.2068
0.0000000 0.2000000 0.3000000
204.0074
211.6367
236.6109
246.5447
370.6469
380.9542
0.0000000 0.2000000 0.4000000
175.1284
198.4409
236.1795
278.4713
328.9997
411.5767
0.0000000 0.2000000 -0.5000000
139.3411
148.1165
257.8993
274.3499
308.7017
435.5620
0.0000000 0.3000000 0.0000000
158.3891
164.1805
290.4497
327.2218
378.8867
422.8247
0.0000000 0.3000000 0.1000000
171.1992
174.5335
285.1146
341.0386
362.2902
426.8178
0.0000000 0.3000000 0.2000000
201.2326
207.4901
268.5699
318.6659
376.7546
425.9412
0.0000000 0.3000000 0.3000000
234.7372
241.6160
256.7086
268.1868
406.5303
411.5693
0.0000000 0.3000000 0.4000000
208.5765
217.2906
263.4940
308.3392
383.8705
424.0597
0.0000000 0.3000000 -0.5000000
176.8010
179.7677
282.4896
344.3006
357.9718
427.5413
0.0000000 0.4000000 0.0000000
184.2870
209.7593
308.3506
380.2442
396.1010
418.5986
0.0000000 0.4000000 0.1000000
196.1341
208.7380
303.3637
365.3633
395.6074
434.5378
0.0000000 0.4000000 0.2000000
221.2188
224.2163
288.0257
319.0403
420.2225
445.3957
0.0000000 0.4000000 0.3000000
256.1203
258.2388
262.7643
268.3268
439.6111
442.2069
0.0000000 0.4000000 0.4000000
227.3621
231.1865
283.3133
307.9762
425.3155
445.9398
0.0000000 0.4000000 -0.5000000
201.3397
209.4832
300.9232
356.2430
400.5697
437.9843
0.0000000 -0.5000000 0.0000000
196.6698
244.0104
318.4087
371.5720
406.8152
438.5006
0.0000000 -0.5000000 0.1000000
208.0950
235.3082
313.4730
350.8402
420.1812
448.0833
0.0000000 -0.5000000 0.2000000
231.6307
235.5945
298.4663
308.5457
442.9746
459.3062
0.0000000 -0.5000000 0.3000000
255.1189
263.7013
267.2183
273.7989
458.0446
459.6828
0.0000000 -0.5000000 0.4000000
234.1127
242.7106
293.8674
298.4189
447.2160
460.4626
0.0000000 -0.5000000 -0.5000000
213.1602
232.8347
311.0724
342.6632
425.1752
451.1035
0.1000000 0.1000000 0.0000000
80.4657
88.6333
178.0701
255.0823
284.9905
454.5953
0.1000000 0.1000000 0.1000000
107.6442
116.2041
209.5087
248.5714
277.1603
446.3809
0.1000000 0.1000000 0.2000000
146.1115
165.5117
227.1693
254.0132
284.0475
419.6563
0.1000000 0.1000000 0.3000000
185.4754
192.9469
211.1586
219.2679
357.1853
370.8191
0.1000000 0.1000000 0.4000000
154.9282
175.3562
221.1626
247.2803
300.9535
410.9971
0.1000000 0.1000000 -0.5000000
115.3186
127.4049
223.1248
245.6635
273.4054
442.2794
0.1000000 0.2000000 0.0000000
125.2582
143.4237
243.8108
294.6041
329.4416
440.3850
0.1000000 0.2000000 0.1000000
143.2645
156.6998
258.1247
296.9839
319.6057
435.1781
0.1000000 0.2000000 0.2000000
183.7575
187.3042
257.8992
291.6989
329.9415
417.9065
0.1000000 0.2000000 0.3000000
215.3144
217.8042
248.3061
254.1398
376.6832
385.6901
0.1000000 0.2000000 0.4000000
192.2871
195.6395
254.2953
283.8218
340.3461
412.2311
0.1000000 0.2000000 -0.5000000
151.0477
162.3551
261.3344
300.5489
314.9235
432.5579
0.1000000 0.3000000 0.0000000
172.7655
186.9078
288.2173
345.5179
377.7634
418.5011
0.1000000 0.3000000 0.1000000
175.0877
199.8662
292.2337
349.4388
362.8039
424.2006
0.1000000 0.3000000 0.2000000
197.3443
226.4620
285.7111
316.6684
381.6001
425.4382
0.1000000 0.3000000 0.3000000
234.7323
240.3942
274.6904
278.9761
408.5497
413.1122
0.1000000 0.3000000 0.4000000
205.0906
232.4331
282.0749
307.4180
387.9520
423.9952
0.1000000 0.3000000 -0.5000000
177.7933
205.0279
292.4082
346.1693
362.8074
425.4066
0.1000000 0.4000000 0.0000000
213.4037
216.5738
316.4257
382.7881
392.0077
415.2090
0.1000000 0.4000000 0.1000000
205.1869
229.7822
314.7183
361.4526
397.1959
430.8032
0.1000000 0.4000000 0.2000000
209.2861
253.6758
296.8401
325.1551
419.2138
442.2359
0.1000000 0.4000000 0.3000000
238.7985
246.9947
291.7220
297.1074
437.3980
439.8059
0.1000000 0.4000000 0.4000000
213.7529
258.2415
290.6973
318.5113
423.9677
442.9350
0.1000000 0.4000000 -0.5000000
204.1020
234.4694
312.7840
353.2703
401.4628
434.3411
0.2000000 0.2000000 0.0000000
156.1876
165.4108
279.1444
323.1982
364.9721
427.0118
0.2000000 0.2000000 0.1000000
163.8847
180.0009
281.6474
331.8431
351.5363
427.4317
0.2000000 0.2000000 0.2000000
193.8251
210.5994
272.1501
312.7438
365.3754
422.0112
0.2000000 0.2000000 0.3000000
230.2129
234.4968
262.7161
269.6123
397.9419
403.7630
0.2000000 0.2000000 0.4000000
202.2854
218.0707
268.1912
303.4488
372.9061
419.2471
0.2000000 0.2000000 -0.5000000
168.5733
185.8042
281.1038
334.7051
347.5247
427.0901
0.2000000 0.3000000 0.0000000
194.5650
221.5156
299.3576
373.5977
385.7281
406.2545
0.2000000 0.3000000 0.1000000
190.2895
231.0740
308.4776
356.5540
380.1949
420.8882
0.2000000 0.3000000 0.2000000
200.3698
250.7175
308.1417
316.6381
398.2148
428.9302
0.2000000 0.3000000 0.3000000
234.4447
242.6072
295.8780
298.8352
419.0960
422.3965
0.2000000 0.3000000 0.4000000
206.2142
253.7455
302.7115
311.6875
403.1985
428.7708
0.2000000 0.3000000 -0.5000000
190.2582
235.0963
310.5668
347.8104
382.8859
423.7934
0.2000000 0.4000000 0.0000000
233.7639
263.6765
327.6198
380.6939
395.5246
407.8298
0.2000000 0.4000000 0.1000000
219.6437
271.4759
336.7451
349.6152
407.2138
421.6288
0.2000000 0.4000000 0.2000000
210.1602
275.3830
314.4724
344.3143
420.9050
436.1767
0.2000000 0.4000000 0.3000000
230.8940
238.8429
327.1295
331.1561
434.8667
436.6114
0.2000000 0.4000000 0.4000000
211.9882
269.4505
314.7114
342.5607
424.4676
437.5049
0.2000000 0.4000000 -0.5000000
215.6866
274.3160
334.6621
345.2116
409.4617
425.8664
0.3000000 0.3000000 0.0000000
220.0283
221.9932
319.8030
386.0401
388.5212
417.2688
0.3000000 0.3000000 0.1000000
208.9875
236.2513
318.1251
360.0067
400.1423
431.5203
0.3000000 0.3000000 0.2000000
209.9723
258.9815
297.9276
327.5489
421.7473
443.2050
0.3000000 0.3000000 0.3000000
237.5822
245.8110
296.9051
302.1961
439.1824
441.4286
0.3000000 0.3000000 0.4000000
213.8453
262.4731
291.9711
321.8517
426.3442
444.0287
0.3000000 0.3000000 -0.5000000
207.2306
240.8634
315.9459
352.2473
404.4133
435.0375
P = 1199.5800	V = 111.4903	E = -655.27218804000000	S_el = 0.00003021896571
0.0000000 0.0000000 0.0000000
0.0000
0.0000
0.0000
251.0948
251.0948
496.4150
0.0000000 0.0000000 0.1000000
62.8418
62.8418
142.2990
242.7418
242.7418
486.2080
0.0000000 0.0000000 0.2000000
119.3676
119.3676
217.7110
217.7110
269.7427
452.4636
0.0000000 0.0000000 0.3000000
168.7353
168.7353
178.6967
178.6967
371.1659
389.3998
0.0000000 0.0000000 0.4000000
130.8631
130.8631
210.1150
210.1150
294.6720
441.2258
0.0000000 0.0000000 -0.5000000
75.9754
75.9754
172.2026
238.6212
238.6212
480.9878
0.0000000 0.1000000 0.0000000
61.1035
65.9639
139.0420
260.8155
279.8424
490.9950
0.0000000 0.1000000 0.1000000
91.9038
106.2252
186.5389
253.0592
271.6376
481.4045
0.0000000 0.1000000 0.2000000
138.2594
155.9283
229.6633
247.3601
285.7761
450.0620
0.0000000 0.1000000 0.3000000
183.6763
193.0135
201.0401
210.3659
375.7175
392.2691
0.0000000 0.1000000 0.4000000
148.6243
166.2251
222.5351
240.1101
307.4260
439.7019
0.0000000 0.1000000 -0.5000000
101.6567
117.8862
207.0548
249.2215
267.6227
476.5255
0.0000000 0.2000000 0.0000000
120.1779
123.9916
259.4344
283.7804
342.1385
475.3022
0.0000000 0.2000000 0.1000000
140.8472
146.7702
277.3877
282.5152
332.5933
468.5598
0.0000000 0.2000000 0.2000000
177.2153
198.6003
257.0262
303.5657
338.4943
446.7489
0.0000000 0.2000000 0.3000000
216.6377
224.8701
250.7998
261.5347
395.9385
407.0987
0.0000000 0.2000000 0.4000000
186.0298
210.4613
250.8137
295.4649
351.6418
439.5841
0.0000000 0.2000000 -0.5000000
147.9424
157.4019
273.9141
292.9717
328.0547
465.1472
0.0000000 0.3000000 0.0000000
168.2124
174.8194
308.6368
348.9872
403.3958
451.1692
0.0000000 0.3000000 0.1000000
181.8270
185.5779
302.9259
363.5242
385.7729
455.6045
0.0000000 0.3000000 0.2000000
213.6666
220.3231
285.3120
338.5656
402.2701
454.9024
0.0000000 0.3000000 0.3000000
249.2818
256.6994
272.4464
284.8206
434.1759
439.6467
0.0000000 0.3000000 0.4000000
221.5934
230.8453
279.8359
327.3788
410.0079
452.8924
0.0000000 0.3000000 -0.5000000
187.8609
191.1642
300.0768
366.5034
381.6197
456.4437
0.0000000 0.4000000 0.0000000
195.8282
222.9785
327.8440
405.4524
422.1725
446.3277
0.0000000 0.4000000 0.1000000
208.3691
221.9523
322.4772
388.9123
422.1710
463.6362
0.0000000 0.4000000 0.2000000
235.2394
238.1412
306.0550
339.4223
448.6016
475.5574
0.0000000 0.4000000 0.3000000
272.0673
274.4476
279.1801
285.4401
469.4591
472.2816
0.0000000 0.4000000 0.4000000
241.8173
245.7005
300.9466
327.4505
454.1607
476.1905
0.0000000 0.4000000 -0.5000000
213.9720
222.7821
319.8128
378.9978
427.5749
467.4500
0.0000000 -0.5000000 0.0000000
209.0630
259.1456
338.7358
395.6301
433.7376
468.0734
0.0000000 -0.5000000 0.1000000
221.1542
250.1013
333.3927
373.5256
448.1776
478.3909
0.0000000 -0.5000000 0.2000000
246.4453
250.3188
317.2271
328.5266
472.8473
490.5751
0.0000000 -0.5000000 0.3000000
271.5980
280.9041
283.7213
290.8698
489.2222
491.0274
0.0000000 -0.5000000 0.4000000
249.2646
257.8848
312.2164
317.5987
477.5164
491.8552
0.0000000 -0.5000000 -0.5000000
226.5997
247.5167
330.7554
364.6801
453.6580
481.7069
0.1000000 0.1000000 0.0000000
85.8872
94.0666
189.9624
271.0770
302.9588
485.6670
0.1000000 0.1000000 0.1000000
114.1095
123.2551
223.6966
264.1554
294.5451
476.8353
0.1000000 0.1000000 0.2000000
154.9848
175.2770
241.3532
269.7481
303.4389
448.2515
0.1000000 0.1000000 0.3000000
196.9365
204.9909
223.8907
232.6574
381.4515
396.2041
0.1000000 0.1000000 0.4000000
164.5253
185.8968
234.8735
262.4408
321.7507
438.8654
0.1000000 0.1000000 -0.5000000
122.3665
135.1917
238.4469
261.0746
290.4522
472.3620
0.1000000 0.2000000 0.0000000
133.5693
152.1203
259.5867
313.7160
350.3306
470.2364
0.1000000 0.2000000 0.1000000
152.2374
166.2047
274.5543
316.6591
339.7108
464.7332
0.1000000 0.2000000 0.2000000
194.8791
198.6511
273.9368
309.7199
352.4389
446.4366
0.1000000 0.2000000 0.3000000
228.5478
231.1593
263.4526
269.6693
402.4184
412.1722
0.1000000 0.2000000 0.4000000
204.1170
207.5809
270.0367
301.1604
363.7500
440.3142
0.1000000 0.2000000 -0.5000000
160.4835
172.3234
277.8488
320.7467
334.5853
461.9146
0.1000000 0.3000000 0.0000000
183.8728
198.3722
306.2192
368.5841
402.2056
446.4620
0.1000000 0.3000000 0.1000000
186.1298
212.1256
310.4473
372.1196
386.8158
452.7484
0.1000000 0.3000000 0.2000000
209.4787
240.3567
303.5315
336.4825
407.5248
454.3478
0.1000000 0.3000000 0.3000000
249.0319
255.1326
291.8348
296.4391
436.3680
441.3138
0.1000000 0.3000000 0.4000000
217.7848
246.7927
299.6141
326.4822
414.4256
452.8219
0.1000000 0.3000000 -0.5000000
188.9916
217.6857
310.6240
368.0443
387.3331
454.1205
0.1000000 0.4000000 0.0000000
226.6837
230.1096
336.2382
408.2250
417.7040
442.7758
0.1000000 0.4000000 0.1000000
217.9911
244.0996
334.4300
384.6827
423.9838
459.5988
0.1000000 0.4000000 0.2000000
222.3675
269.4001
315.4524
345.9431
447.5729
472.1378
0.1000000 0.4000000 0.3000000
253.5739
262.3620
310.1629
315.9846
467.0921
469.7028
0.1000000 0.4000000 0.4000000
227.1785
274.2766
308.8924
338.7420
452.7501
472.9449
0.1000000 0.4000000 -0.5000000
216.8422
249.1425
332.3305
375.8031
428.6261
463.5071
0.2000000 0.2000000 0.0000000
166.2472
175.6607
296.6714
344.6625
388.4370
455.7108
0.2000000 0.2000000 0.1000000
174.2054
191.0786
299.2217
353.8332
374.1605
456.3137
0.2000000 0.2000000 0.2000000
205.6843
223.5290
289.1028
332.1880
390.1938
450.7573
0.2000000 0.2000000 0.3000000
244.3166
248.9230
278.9388
286.3145
425.0620
431.3763
0.2000000 0.2000000 0.4000000
214.7754
231.5731
284.8352
322.1183
398.3810
447.7929
0.2000000 0.2000000 -0.5000000
179.1869
197.3267
298.6076
356.4449
370.2969
455.9959
0.2000000 0.3000000 0.0000000
206.8963
235.0705
317.9814
398.7251
410.7822
433.1468
0.2000000 0.3000000 0.1000000
202.2429
245.1763
327.7054
379.2588
406.0431
449.0258
0.2000000 0.3000000 0.2000000
212.7539
265.9945
327.4735
336.5784
425.3171
457.9761
0.2000000 0.3000000 0.3000000
248.7273
257.4791
314.4880
317.6645
447.6216
451.1876
0.2000000 0.3000000 0.4000000
219.0184
269.2354
321.6579
331.2307
430.7209
457.8567
0.2000000 0.3000000 -0.5000000
202.1786
249.5035
329.9688
369.7362
408.9852
452.2591
0.2000000 0.4000000 0.0000000
248.2560
280.0052
347.9810
405.3305
421.4113
435.4308
0.2000000 0.4000000 0.1000000
233.2626
288.1908
357.8451
371.9158
434.9089
449.5667
0.2000000 0.4000000 0.2000000
223.2486
292.1659
334.5550
366.1868
449.4823
465.4950
0.2000000 0.4000000 0.3000000
245.1553
253.6764
347.9138
352.2642
464.3480
466.2164
0.2000000 0.4000000 0.4000000
225.2298
285.8202
334.7967
364.3200
453.3309
467.0054
0.2000000 0.4000000 -0.5000000
229.0149
291.2048
355.7225
367.0674
437.3612
454.2327
0.3000000 0.3000000 0.0000000
233.8264
235.7225
339.8223
411.6718
413.9187
445.0464
0.3000000 0.3000000 0.1000000
222.0085
250.9650
338.0498
383.1541
427.1046
460.3715
0.3000000 0.3000000 0.2000000
223.1011
275.0159
316.6556
348.5089
450.2693
473.1638
0.3000000 0.3000000 0.3000000
252.2996
261.1238
315.6965
321.4181
468.9919
471.4274
0.3000000 0.3000000 0.4000000
227.2777
278.7161
310.3252
342.3260
455.2774
474.1061
0.3000000 0.3000000 -0.5000000
220.1385
255.9276
335.6858
374.7419
431.7576
464.2506
P = 1695.0100	V = 104.5144	E = -655.22144469000000	S_el = 0.00002774997286
0.0000000 0.0000000 0.0000000
0.0000
0.0000
0.0000
277.1095
277.1095
552.6029
0.0000000 0.0000000 0.1000000
68.7127
68.7127
158.0795
267.8803
267.8803
540.9460
0.0000000 0.0000000 0.2000000
131.0713
131.0713
240.2809
240.2809
299.5512
502.9357
0.0000000 0.0000000 0.3000000
185.8913
185.8913
197.1698
197.1698
412.0907
432.7558
0.0000000 0.0000000 0.4000000
144.0890
144.0890
231.7194
231.7194
327.7760
490.0976
0.0000000 0.0000000 -0.5000000
83.4406
83.4406
191.9686
263.2293
263.2293
534.8822
0.0000000 0.1000000 0.0000000
67.9549
72.7230
154.2953
287.7427
308.7474
546.4009
0.0000000 0.1000000 0.1000000
100.9094
116.6171
207.4939
279.1557
299.6078
535.5117
0.0000000 0.1000000 0.2000000
152.0131
171.0509
253.3552
272.6418
317.7012
500.3415
0.0000000 0.1000000 0.3000000
202.3657
212.9172
221.0521
231.6196
417.4092
436.1458
0.0000000 0.1000000 0.4000000
163.7384
182.6761
245.3285
264.4285
342.1955
488.5369
0.0000000 0.1000000 -0.5000000
111.8433
129.5492
230.8191
274.8190
295.0427
529.8721
0.0000000 0.2000000 0.0000000
133.3548
136.7309
287.8455
312.9457
377.6091
528.4352
0.0000000 0.2000000 0.1000000
155.0361
162.0095
305.6774
313.8123
366.8764
520.9514
0.0000000 0.2000000 0.2000000
195.1219
218.1792
283.3684
334.1868
376.3386
496.8064
0.0000000 0.2000000 0.3000000
238.7007
247.9733
275.4410
287.5416
440.2634
452.9084
0.0000000 0.2000000 0.4000000
205.0727
231.4080
276.3822
324.9579
391.2978
488.7025
0.0000000 0.2000000 -0.5000000
163.0042
173.7273
301.9079
325.5287
361.7214
517.0799
0.0000000 0.3000000 0.0000000
185.4698
193.5143
340.4145
386.9874
445.9777
500.8065
0.0000000 0.3000000 0.1000000
200.4506
205.0216
334.0333
402.5977
426.7617
506.0215
0.0000000 0.3000000 0.2000000
235.4042
242.8184
314.5286
373.0974
446.8733
505.6194
0.0000000 0.3000000 0.3000000
274.6716
283.0156
299.8546
313.7444
482.5309
488.7627
0.0000000 0.3000000 0.4000000
244.3268
254.5507
308.3584
360.4376
455.6909
503.3797
0.0000000 0.3000000 -0.5000000
207.2171
211.2126
330.7906
404.9160
423.0674
507.0684
0.0000000 0.4000000 0.0000000
216.1039
246.0618
361.8699
449.3046
467.6769
494.5781
0.0000000 0.4000000 0.1000000
229.8136
245.1247
355.8281
429.8647
468.4897
514.3956
0.0000000 0.4000000 0.2000000
259.8051
262.5413
337.5007
374.9108
498.0888
528.2380
0.0000000 0.4000000 0.3000000
299.8817
302.8072
307.8215
315.3245
521.5511
524.7789
0.0000000 0.4000000 0.4000000
267.1602
271.0641
331.7075
361.3893
504.4623
529.0280
0.0000000 0.4000000 -0.5000000
236.0831
246.1311
352.7716
418.5844
474.6545
518.8737
0.0000000 -0.5000000 0.0000000
230.8392
285.4655
374.1846
437.5020
480.4771
519.5702
0.0000000 -0.5000000 0.1000000
244.0378
275.9746
368.1251
413.0302
496.8158
531.2287
0.0000000 -0.5000000 0.2000000
272.4846
276.0559
349.9404
363.4097
524.8182
545.1389
0.0000000 -0.5000000 0.3000000
300.5049
310.9069
312.6537
320.6486
543.5584
545.6743
0.0000000 -0.5000000 0.4000000
275.9084
284.3690
344.2197
351.1212
530.2505
546.6318
0.0000000 -0.5000000 -0.5000000
250.1166
273.2539
365.0759
403.0501
503.1508
535.0766
0.1000000 0.1000000 0.0000000
95.4941
103.6149
210.8036
299.0392
334.2362
540.3023
0.1000000 0.1000000 0.1000000
125.4357
135.6873
248.5749
291.4072
324.8113
530.3381
0.1000000 0.1000000 0.2000000
170.4960
192.3168
266.1419
297.1245
337.4667
498.3955
0.1000000 0.1000000 0.3000000
216.9654
226.0215
246.0312
255.9235
423.9857
440.6761
0.1000000 0.1000000 0.4000000
181.2828
204.2511
258.8400
288.8178
358.2110
487.7292
0.1000000 0.1000000 -0.5000000
134.6945
148.8652
265.2633
288.0673
320.1358
525.1953
0.1000000 0.2000000 0.0000000
148.2483
167.3351
287.1749
347.1758
386.6013
522.6310
0.1000000 0.2000000 0.1000000
168.0640
182.8262
303.2387
351.1236
374.6246
516.5984
0.1000000 0.2000000 0.2000000
214.2561
218.5472
301.9075
340.9953
391.8423
496.4694
0.1000000 0.2000000 0.3000000
251.6125
254.4224
289.7984
296.6414
447.5139
458.5705
0.1000000 0.2000000 0.4000000
224.7106
228.4662
297.4831
331.2575
404.7299
489.5624
0.1000000 0.2000000 -0.5000000
177.0830
189.7457
306.6661
356.0599
368.7951
513.4309
0.1000000 0.3000000 0.0000000
203.3736
218.4165
337.6346
408.8390
444.7003
495.4043
0.1000000 0.3000000 0.1000000
205.5582
233.5412
342.2109
411.3890
428.8931
502.7217
0.1000000 0.3000000 0.2000000
230.7830
264.5737
334.5718
370.8938
452.8491
504.9583
0.1000000 0.3000000 0.3000000
273.9691
280.8016
321.6910
326.8319
485.0230
490.6430
0.1000000 0.3000000 0.4000000
240.0247
271.7981
330.1652
359.6171
460.7011
503.2854
0.1000000 0.3000000 -0.5000000
208.6947
239.7766
342.3821
405.9525
430.2708
504.3910
0.1000000 0.4000000 0.0000000
249.8986
253.7474
370.7540
452.4363
462.5405
490.7988
0.1000000 0.4000000 0.1000000
240.4326
269.1126
368.7498
425.0838
470.7083
509.8199
0.1000000 0.4000000 0.2000000
245.3723
296.7975
347.8706
382.1480
497.0357
524.3481
0.1000000 0.4000000 0.3000000
279.4372
289.2087
342.2985
348.8664
518.9134
521.8846
0.1000000 0.4000000 0.4000000
250.7665
302.1953
340.6168
373.9875
502.9499
525.3472
0.1000000 0.4000000 -0.5000000
239.2074
274.7519
366.3596
415.0138
475.9982
514.3925
0.2000000 0.2000000 0.0000000
183.9252
193.6338
327.2743
382.1834
429.1993
505.9973
0.2000000 0.2000000 0.1000000
192.3595
210.4813
329.8973
392.0660
413.6571
506.9294
0.2000000 0.2000000 0.2000000
226.4574
246.1159
318.6592
365.9271
433.6054
501.1240
0.2000000 0.2000000 0.3000000
268.9005
274.0553
307.1876
315.3575
472.5266
479.7074
0.2000000 0.2000000 0.4000000
236.6064
255.1331
313.8525
354.5311
442.9329
497.8051
0.2000000 0.2000000 -0.5000000
197.8419
217.4848
329.1536
394.0360
410.2586
506.6582
0.2000000 0.3000000 0.0000000
228.4929
258.6949
350.4416
442.3456
454.5417
480.1531
0.2000000 0.3000000 0.1000000
223.2561
269.7332
361.1859
418.6613
451.2503
498.1867
0.2000000 0.3000000 0.2000000
234.5377
292.5461
361.1025
371.2606
472.6784
508.7603
0.2000000 0.3000000 0.3000000
273.6812
283.4042
346.8736
350.4159
497.4766
501.5078
0.2000000 0.3000000 0.4000000
241.5031
296.1441
354.6433
365.2284
478.8063
508.7144
0.2000000 0.3000000 -0.5000000
223.1529
274.5736
363.7400
407.8120
454.6149
502.0059
0.2000000 0.4000000 0.0000000
273.5268
308.4160
383.3768
448.2676
466.2075
483.7144
0.2000000 0.4000000 0.1000000
257.1246
317.2380
394.5050
410.7036
483.2037
498.2635
0.2000000 0.4000000 0.2000000
246.2993
321.3247
369.5464
404.1906
499.3444
516.6267
0.2000000 0.4000000 0.3000000
270.1804
279.6478
384.0484
388.9471
515.7818
517.8638
0.2000000 0.4000000 0.4000000
248.5448
314.3161
369.7724
402.1301
503.6823
518.4659
0.2000000 0.4000000 -0.5000000
252.4148
320.5315
392.3452
405.0789
486.0417
503.6607
0.3000000 0.3000000 0.0000000
257.8602
259.7574
374.6822
456.2013
458.2179
493.4513
0.3000000 0.3000000 0.1000000
244.8258
276.6519
372.7242
423.4240
474.1104
510.6826
0.3000000 0.3000000 0.2000000
246.1966
302.9382
349.2803
385.0147
500.0038
525.4614
0.3000000 0.3000000 0.3000000
278.0765
287.8899
348.4343
354.8928
521.0038
523.7762
0.3000000 0.3000000 0.4000000
250.8891
306.9869
342.3345
377.9917
505.7288
526.6140
0.3000000 0.3000000 -0.5000000
242.7964
282.2024
370.0366
413.8988
479.4274
515.2078
P = 2189.0200	V = 99.1777	E = -655.16460604000000	S_el = 0.00002585472571
0.0000000 0.0000000 0.0000000
0.0000
0.0000
0.0000
299.4399
299.4399
601.1575
0.0000000 0.0000000 0.1000000
73.8763
73.8763
171.6562
289.4804
289.4804
588.1673
0.0000000 0.0000000 0.2000000
141.2503
141.2503
259.6976
259.6976
325.1464
546.3200
0.0000000 0.0000000 0.3000000
200.6967
200.6967
213.0786
213.0786
447.1992
469.9261
0.0000000 0.0000000 0.4000000
155.5402
155.5402
250.3231
250.3231
356.1487
532.0918
0.0000000 0.0000000 -0.5000000
89.9641
89.9641
208.9171
284.3896
284.3896
581.3473
0.0000000 0.1000000 0.0000000
73.8625
78.5674
167.4374
310.8586
333.4887
594.2458
0.0000000 0.1000000 0.1000000
108.7515
125.5745
225.5476
301.5726
323.5642
582.1690
0.0000000 0.1000000 0.2000000
163.9239
184.0625
273.7173
294.2987
345.1450
543.5704
0.0000000 0.1000000 0.3000000
218.4618
230.0308
238.2056
249.8157
453.2075
473.7949
0.0000000 0.1000000 0.4000000
176.7848
196.7955
264.9327
285.2693
372.0345
530.5155
0.0000000 0.1000000 -0.5000000
120.6895
139.5849
251.2461
296.8193
318.5396
575.8515
0.0000000 0.2000000 0.0000000
144.6359
147.7899
312.3026
337.9837
407.8665
574.2210
0.0000000 0.2000000 0.1000000
167.3186
175.0954
329.9534
340.7395
396.1346
566.0721
0.0000000 0.2000000 0.2000000
210.5515
234.9400
305.9696
360.2762
408.8774
539.8614
0.0000000 0.2000000 0.3000000
257.6480
267.7919
296.4438
309.6823
478.3609
492.2666
0.0000000 0.2000000 0.4000000
221.4473
249.2944
298.3286
350.0900
425.3666
530.9503
0.0000000 0.2000000 -0.5000000
176.0156
187.7195
325.9431
353.4827
390.4842
561.8001
0.0000000 0.3000000 0.0000000
200.4191
209.4850
367.6824
419.6020
482.3090
543.4377
0.0000000 0.3000000 0.1000000
216.5175
221.7101
360.7144
435.9464
461.9013
549.3391
0.0000000 0.3000000 0.2000000
254.0920
262.1025
339.5673
402.4866
485.1680
549.2024
0.0000000 0.3000000 0.3000000
296.4467
305.5662
323.2426
338.3857
524.0503
530.9347
0.0000000 0.3000000 0.4000000
263.8401
274.8291
332.8094
388.5921
494.8970
546.7647
0.0000000 0.3000000 -0.5000000
223.8852
228.4176
357.1341
437.5533
458.7410
550.5712
0.0000000 0.4000000 0.0000000
233.6586
265.7104
391.0378
486.7991
506.6016
535.8334
0.0000000 0.4000000 0.1000000
248.3165
264.9583
384.4072
464.7851
508.1779
557.8737
0.0000000 0.4000000 0.2000000
280.9046
283.5081
364.4377
405.1944
540.4793
573.4234
0.0000000 0.4000000 0.3000000
323.7044
327.1329
332.3543
340.8784
566.2025
569.7838
0.0000000 0.4000000 0.4000000
288.9353
292.7995
358.0671
390.3801
547.5467
574.3496
0.0000000 0.4000000 -0.5000000
255.1247
266.1479
381.0154
452.3566
514.9803
562.9394
0.0000000 -0.5000000 0.0000000
249.6913
307.8153
404.5423
473.1946
520.3601
563.6490
0.0000000 -0.5000000 0.1000000
263.7758
298.0917
397.8665
446.7372
538.3330
576.4905
0.0000000 -0.5000000 0.2000000
294.9190
298.1308
377.9610
393.2450
569.2326
591.9174
0.0000000 -0.5000000 0.3000000
325.3313
336.4981
337.6095
346.1735
590.0796
592.4786
0.0000000 -0.5000000 0.4000000
298.8302
307.0884
371.6446
379.8290
575.3313
593.5890
0.0000000 -0.5000000 -0.5000000
270.3622
295.3120
394.4682
435.8211
545.3983
580.8039
0.1000000 0.1000000 0.0000000
103.7578
111.8704
228.7623
323.0422
360.9629
587.4484
0.1000000 0.1000000 0.1000000
135.2556
146.3813
269.9995
314.8140
350.6850
576.4547
0.1000000 0.1000000 0.2000000
183.8895
206.9341
287.4246
320.5179
366.7301
541.5164
0.1000000 0.1000000 0.3000000
234.1872
244.0760
264.9561
275.7852
460.5294
478.8609
0.1000000 0.1000000 0.4000000
195.7156
219.9600
279.4263
311.3625
389.5237
529.7453
0.1000000 0.1000000 -0.5000000
145.3627
160.6008
288.2866
311.2951
345.5215
570.7189
0.1000000 0.2000000 0.0000000
160.8243
180.4544
310.8938
375.9476
417.5173
567.7498
0.1000000 0.2000000 0.1000000
181.6754
197.1356
327.8359
380.7831
404.3917
561.2465
0.1000000 0.2000000 0.2000000
230.8520
235.6571
325.8528
367.6391
425.7228
539.5022
0.1000000 0.2000000 0.3000000
271.3629
274.3218
312.2876
319.6264
486.2758
498.4396
0.1000000 0.2000000 0.4000000
242.3347
246.3717
320.9760
356.9063
439.9405
531.9220
0.1000000 0.2000000 -0.5000000
191.3494
204.7171
331.3544
386.3797
398.0337
557.7775
0.1000000 0.3000000 0.0000000
220.0347
235.6693
364.5684
443.3583
480.9894
537.4141
0.1000000 0.3000000 0.1000000
222.2421
251.9309
369.4065
444.7816
465.1101
545.6356
0.1000000 0.3000000 0.2000000
249.0913
285.3046
361.1079
400.2068
491.7720
548.4373
0.1000000 0.3000000 0.3000000
295.3017
302.7351
347.1948
352.7725
526.7996
532.9958
0.1000000 0.3000000 0.4000000
259.1006
293.1772
356.2847
387.8681
500.4236
546.6390
0.1000000 0.3000000 -0.5000000
225.6230
258.7215
369.5615
438.2237
467.1840
547.5685
0.1000000 0.4000000 0.0000000
269.8673
273.8867
400.2835
490.1986
500.8784
531.9123
0.1000000 0.4000000 0.1000000
259.6843
290.5560
398.0867
459.5404
510.7563
552.8271
0.1000000 0.4000000 0.2000000
265.1720
320.2367
375.5787
413.0718
539.4153
569.1137
0.1000000 0.4000000 0.3000000
301.6233
312.1955
369.7814
376.9705
563.3290
566.6121
0.1000000 0.4000000 0.4000000
271.0503
326.0573
367.7591
404.1094
545.9537
570.2806
0.1000000 0.4000000 -0.5000000
258.4191
296.6902
395.4453
448.4774
516.5910
557.9822
0.2000000 0.2000000 0.0000000
199.0789
209.1044
353.5297
414.4112
463.9708
549.2147
0.2000000 0.2000000 0.1000000
207.9634
227.1677
356.1882
424.7117
447.5304
550.4413
0.2000000 0.2000000 0.2000000
244.2984
265.4761
343.9550
394.6479
470.8991
544.4204
0.2000000 0.2000000 0.3000000
289.9407
295.5473
331.3109
340.1176
513.2991
521.2201
0.2000000 0.2000000 0.4000000
255.3190
275.2950
338.6874
382.1408
481.1881
540.7971
0.2000000 0.2000000 -0.5000000
213.8728
234.7953
355.3254
425.9520
444.7082
550.2161
0.2000000 0.3000000 0.0000000
246.9207
278.9505
378.2370
479.5188
492.1235
520.4320
0.2000000 0.3000000 0.1000000
241.2830
290.7588
389.8017
452.2197
490.1077
540.3287
0.2000000 0.3000000 0.2000000
253.2791
315.2139
389.8033
400.8515
513.3371
552.3420
0.2000000 0.3000000 0.3000000
295.0471
305.5549
374.5304
378.3696
540.2586
544.6852
0.2000000 0.3000000 0.4000000
260.8192
319.0982
382.8178
394.2463
520.0691
552.3638
0.2000000 0.3000000 -0.5000000
241.1715
296.0162
392.5867
440.2626
493.8195
544.6637
0.2000000 0.4000000 0.0000000
295.0437
332.7141
413.6035
484.9567
504.2611
525.2250
0.2000000 0.4000000 0.1000000
277.5596
342.0411
425.7648
443.7923
524.5849
539.9407
0.2000000 0.4000000 0.2000000
266.1568
346.1821
399.4686
436.5930
542.0855
560.4113
0.2000000 0.4000000 0.3000000
291.6873
301.9195
414.8885
420.2376
559.8482
562.1082
0.2000000 0.4000000 0.4000000
268.6274
338.6484
399.6697
434.3724
546.8279
562.5415
0.2000000 0.4000000 -0.5000000
272.5007
345.5485
423.5898
437.5155
527.7808
545.9438
0.3000000 0.3000000 0.0000000
278.4282
280.3184
404.4919
494.2172
496.0793
534.9066
0.3000000 0.3000000 0.1000000
264.3924
298.6632
402.3487
457.7766
514.3793
553.7648
0.3000000 0.3000000 0.2000000
266.0790
326.8134
377.1644
416.2017
542.6053
570.2933
0.3000000 0.3000000 0.3000000
300.1985
310.8164
376.4275
383.5000
565.5742
568.6389
0.3000000 0.3000000 0.4000000
271.2013
331.1416
369.7232
408.4735
548.9385
571.6292
0.3000000 0.3000000 -0.5000000
262.2569
304.7002
399.3830
447.3260
520.2589
558.8536
P = 2683.0400	V = 94.8736	E = -655.10424318000000	S_el = 0.00002433136857
0.0000000 0.0000000 0.0000000
0.0000
0.0000
0.0000
319.1469
319.1469
644.2065
0.0000000 0.0000000 0.1000000
78.5890
78.5890
183.6085
308.5619
308.5619
629.9754
0.0000000 0.0000000 0.2000000
150.3938
150.3938
276.8710
276.8710
347.6808
584.6166
0.0000000 0.0000000 0.3000000
213.8463
213.8463
227.1747
227.1747
478.1280
502.6558
0.0000000 0.0000000 0.4000000
165.7722
165.7722
266.7929
266.7929
381.0956
569.1522
0.0000000 0.0000000 -0.5000000
95.8743
95.8743
223.7985
303.0960
303.0960
622.4664
0.0000000 0.1000000 0.0000000
79.0622
83.7522
179.0764
331.2603
355.2761
636.6419
0.0000000 0.1000000 0.1000000
115.7968
133.4945
241.5100
321.3704
344.6749
623.4633
0.0000000 0.1000000 0.2000000
174.5584
195.5998
291.7116
313.3893
369.3455
581.7358
0.0000000 0.1000000 0.3000000
232.7264
245.1695
253.3483
265.8570
484.7687
506.9704
0.0000000 0.1000000 0.4000000
188.3916
209.2852
282.2696
303.6498
398.3111
567.5719
0.0000000 0.1000000 -0.5000000
128.6175
148.4606
269.2606
316.2596
339.2557
616.5308
0.0000000 0.2000000 0.0000000
154.5363
157.6154
333.9486
360.0831
434.4438
614.7245
0.0000000 0.2000000 0.1000000
178.2591
186.5879
351.4201
364.5100
421.8462
605.9657
0.0000000 0.2000000 0.2000000
224.2351
249.6819
325.9128
383.1730
437.6186
577.8855
0.0000000 0.2000000 0.3000000
274.3874
285.2813
314.8793
329.0973
511.9900
526.9948
0.0000000 0.2000000 0.4000000
235.9389
264.9995
317.7019
372.1516
455.4328
568.2629
0.0000000 0.2000000 -0.5000000
187.5843
199.9997
347.1629
378.1602
415.7840
601.3356
0.0000000 0.3000000 0.0000000
213.7335
223.4440
391.7431
448.4029
514.2343
581.0481
0.0000000 0.3000000 0.1000000
230.7717
236.3731
384.2499
465.2605
492.8891
587.5724
0.0000000 0.3000000 0.2000000
270.6179
279.0625
361.6408
428.2441
518.9746
587.6819
0.0000000 0.3000000 0.3000000
315.6580
325.4458
343.7673
359.9840
560.6945
568.1510
0.0000000 0.3000000 0.4000000
281.0706
292.6381
354.3713
413.2808
529.4928
585.0703
0.0000000 0.3000000 -0.5000000
238.6478
243.5380
380.3729
466.1466
490.2867
588.9735
0.0000000 0.4000000 0.0000000
249.2823
282.8669
416.7565
519.8150
540.8273
572.1551
0.0000000 0.4000000 0.1000000
264.7327
282.3612
409.6004
495.4283
543.1747
596.1852
0.0000000 0.4000000 0.2000000
299.5146
302.0113
388.1783
431.7751
577.8431
613.2813
0.0000000 0.4000000 0.3000000
344.6955
348.5688
353.9690
363.3289
605.5739
609.4694
0.0000000 0.4000000 0.4000000
308.1433
311.9428
381.3070
415.8468
585.5168
614.3290
0.0000000 0.4000000 -0.5000000
271.9894
283.7366
405.9144
482.0047
550.5268
601.7798
0.0000000 -0.5000000 0.0000000
266.4661
327.3172
431.2902
504.4853
555.4282
602.4953
0.0000000 -0.5000000 0.1000000
281.2824
317.4961
424.0705
476.3154
574.8386
616.3921
0.0000000 -0.5000000 0.2000000
314.7500
317.5936
402.6579
419.4698
608.3138
633.1778
0.0000000 -0.5000000 0.3000000
347.2108
358.9233
359.7381
368.6862
631.0713
633.7312
0.0000000 -0.5000000 0.4000000
319.0476
327.1419
395.8272
405.0878
615.0064
635.0041
0.0000000 -0.5000000 -0.5000000
288.2890
314.7053
420.3686
464.6024
582.5428
621.1200
0.1000000 0.1000000 0.0000000
111.0110
119.2031
244.6686
344.2261
384.4685
629.2020
0.1000000 0.1000000 0.1000000
144.0264
155.7963
288.9543
335.4838
373.4516
617.2564
0.1000000 0.1000000 0.2000000
195.8035
219.8381
306.2156
341.0986
392.5605
579.5917
0.1000000 0.1000000 0.3000000
249.4239
260.0234
281.6175
293.2498
492.7665
512.5282
0.1000000 0.1000000 0.4000000
208.5194
233.8024
297.6116
331.2028
417.1284
566.8432
0.1000000 0.1000000 -0.5000000
154.8760
170.9276
308.5961
331.8386
367.8678
610.9850
0.1000000 0.2000000 0.0000000
171.8247
192.0969
331.8666
401.3761
444.6584
607.6414
0.1000000 0.2000000 0.1000000
193.6534
209.8110
349.5313
407.0159
430.5310
600.7088
0.1000000 0.2000000 0.2000000
245.4848
250.7660
346.9394
391.0197
455.6562
577.5075
0.1000000 0.2000000 0.3000000
288.7684
291.8405
332.0481
339.7952
520.4970
533.6260
0.1000000 0.2000000 0.4000000
257.8659
262.1428
341.6638
379.4212
471.0243
569.3350
0.1000000 0.2000000 -0.5000000
203.9124
217.9511
353.1099
413.1448
423.7634
596.9722
0.1000000 0.3000000 0.0000000
234.6074
250.9495
388.3252
473.8129
512.9023
574.4580
0.1000000 0.3000000 0.1000000
236.9158
268.1757
393.3604
474.0552
497.1421
583.4976
0.1000000 0.3000000 0.2000000
265.2312
303.5676
384.4509
425.9156
526.1409
586.8171
0.1000000 0.3000000 0.3000000
314.0701
322.0180
369.6091
375.5536
563.6711
570.3710
0.1000000 0.3000000 0.4000000
275.8959
311.9894
379.2628
412.6633
535.4820
584.9105
0.1000000 0.3000000 -0.5000000
240.5220
275.4375
393.4919
466.5411
499.7977
585.6699
0.1000000 0.4000000 0.0000000
287.5395
291.4934
426.2836
523.4218
534.5759
568.1457
0.1000000 0.4000000 0.1000000
276.6337
309.4555
423.8971
489.7826
546.0781
590.7166
0.1000000 0.4000000 0.2000000
282.6445
340.8719
399.9462
440.2441
576.7762
608.5895
0.1000000 0.4000000 0.3000000
321.1704
332.4215
393.9628
401.6850
602.4890
606.0477
0.1000000 0.4000000 0.4000000
288.9391
347.0473
391.6458
430.5926
583.8572
609.9066
0.1000000 0.4000000 -0.5000000
275.3469
316.0184
421.0329
477.8643
552.3843
596.3924
0.2000000 0.2000000 0.0000000
212.3849
222.7828
376.7019
442.8783
494.5196
587.3627
0.2000000 0.2000000 0.1000000
221.7066
241.9140
379.3646
453.4158
477.4144
588.8592
0.2000000 0.2000000 0.2000000
260.0359
282.5364
366.2278
419.8280
503.8353
582.6513
0.2000000 0.2000000 0.3000000
308.4687
314.4588
352.5041
361.8401
549.2914
557.8597
0.2000000 0.2000000 0.4000000
271.8035
293.0362
360.5553
406.3597
514.9556
578.7611
0.2000000 0.2000000 -0.5000000
227.9945
250.0736
378.3904
453.8951
475.2141
588.6792
0.2000000 0.3000000 0.0000000
263.0348
296.8324
402.7320
512.1483
525.3313
555.8985
0.2000000 0.3000000 0.1000000
257.1253
309.2953
414.9717
481.6577
524.4525
577.4657
0.2000000 0.3000000 0.2000000
269.8070
335.1445
415.0137
426.8356
549.2329
590.7876
0.2000000 0.3000000 0.3000000
313.8457
325.0160
398.8383
402.9279
578.0054
582.7756
0.2000000 0.3000000 0.4000000
277.8376
339.2646
407.5808
419.7378
556.4823
590.8734
0.2000000 0.3000000 -0.5000000
257.0273
314.9024
417.9451
468.7433
528.4601
582.2654
0.2000000 0.4000000 0.0000000
313.8552
354.1148
440.1867
517.1991
537.5861
561.9202
0.2000000 0.4000000 0.1000000
295.5123
363.8569
453.2111
472.8418
561.0731
576.6427
0.2000000 0.4000000 0.2000000
283.6866
367.9997
425.7950
465.0379
579.7794
598.9833
0.2000000 0.4000000 0.3000000
310.6542
321.5304
441.9889
447.7198
598.6874
601.0997
0.2000000 0.4000000 0.4000000
286.3554
360.0270
425.9703
462.6815
584.8652
601.3758
0.2000000 0.4000000 -0.5000000
290.1805
367.5337
451.0277
466.0060
564.6034
583.1629
0.3000000 0.3000000 0.0000000
296.5471
298.3653
430.7293
527.6513
529.3451
571.4517
0.3000000 0.3000000 0.1000000
281.6122
318.0603
428.4015
487.9310
549.8826
591.7212
0.3000000 0.3000000 0.2000000
283.6268
347.8244
401.6839
443.6120
580.1548
609.8233
0.3000000 0.3000000 0.3000000
319.6938
330.9931
401.0564
408.6563
604.8655
608.1889
0.3000000 0.3000000 0.4000000
289.1198
352.3839
393.8266
435.2761
587.0174
611.3227
0.3000000 0.3000000 -0.5000000
279.4012
324.5166
425.1899
476.6863
556.2520
597.3115
P = 3176.1500	V = 91.2893	E = -655.04184209000000	S_el = 0.00002307387143
0.0000000 0.0000000 0.0000000
0.0000
0.0000
0.0000
336.8036
336.8036
682.9080
0.0000000 0.0000000 0.1000000
82.9542
82.9542
194.2737
325.6736
325.6736
667.5176
0.0000000 0.0000000 0.2000000
158.7314
158.7314
292.2884
292.2884
367.8057
618.9210
0.0000000 0.0000000 0.3000000
225.7008
225.7008
239.8538
239.8538
505.7811
531.9085
0.0000000 0.0000000 0.4000000
175.0560
175.0560
281.5909
281.5909
403.3525
602.3431
0.0000000 0.0000000 -0.5000000
101.3120
101.3120
237.0489
319.8819
319.8819
659.3761
0.0000000 0.1000000 0.0000000
83.6967
88.4161
189.5368
349.5403
374.7631
674.7394
0.0000000 0.1000000 0.1000000
122.2193
140.5965
255.8256
339.1203
363.5688
660.5337
0.0000000 0.1000000 0.2000000
184.1971
205.9903
307.8540
330.4817
390.9934
615.9264
0.0000000 0.1000000 0.3000000
245.5595
258.7657
266.9283
280.2240
513.0060
536.6396
0.0000000 0.1000000 0.4000000
198.8767
220.5099
297.8324
320.1142
421.7899
600.7656
0.0000000 0.1000000 -0.5000000
135.8300
156.4272
285.3775
333.6974
357.8050
653.0381
0.0000000 0.2000000 0.0000000
163.3513
166.4572
353.3932
379.8856
458.1681
651.0716
0.0000000 0.2000000 0.1000000
188.1469
196.8182
370.7050
385.7961
444.8075
641.7486
0.0000000 0.2000000 0.2000000
236.5542
262.8462
343.7810
403.5989
463.3819
611.9586
0.0000000 0.2000000 0.3000000
289.4034
300.9540
331.3261
346.4037
542.1133
558.0916
0.0000000 0.2000000 0.4000000
248.9612
279.0064
335.0659
391.8371
482.3616
601.6999
0.0000000 0.2000000 -0.5000000
198.0236
210.9296
366.1826
400.2766
438.3955
636.7944
0.0000000 0.3000000 0.0000000
225.7619
235.8169
413.2989
474.2293
542.7453
614.7236
0.0000000 0.3000000 0.1000000
243.6051
249.4354
405.3302
491.4475
520.6389
621.8204
0.0000000 0.3000000 0.2000000
285.4545
294.1978
381.4024
451.1906
549.2735
622.1619
0.0000000 0.3000000 0.3000000
332.8696
343.2437
362.0645
379.2198
593.5251
601.4901
0.0000000 0.3000000 0.4000000
296.5197
308.5145
373.6801
435.2850
560.4862
619.3961
0.0000000 0.3000000 -0.5000000
251.9192
257.0132
401.1886
491.6239
518.5942
623.3777
0.0000000 0.4000000 0.0000000
263.3870
298.0758
439.7852
549.3551
571.3868
604.6461
0.0000000 0.4000000 0.1000000
279.5125
297.8538
432.1541
522.7512
574.5184
630.4705
0.0000000 0.4000000 0.2000000
316.1718
318.5821
409.4289
455.4763
611.2920
648.9803
0.0000000 0.4000000 0.3000000
363.4805
367.7425
373.3091
383.3562
640.8284
645.0064
0.0000000 0.4000000 0.4000000
325.3361
329.0606
402.1159
438.5696
619.5034
650.1380
0.0000000 0.4000000 -0.5000000
287.1504
299.4140
428.2062
508.4497
582.3527
636.5456
0.0000000 -0.5000000 0.0000000
281.6063
344.6061
455.2261
532.3543
586.7700
637.2750
0.0000000 -0.5000000 0.1000000
297.0400
334.7768
447.5198
502.6823
607.4615
652.1208
0.0000000 -0.5000000 0.2000000
332.5297
335.0147
424.7665
442.8764
643.2547
670.1368
0.0000000 -0.5000000 0.3000000
366.7747
378.8796
379.6487
388.8519
667.7603
670.6613
0.0000000 -0.5000000 0.4000000
337.1321
345.1169
417.4842
427.6504
650.4830
672.0994
0.0000000 -0.5000000 -0.5000000
304.4016
332.0061
443.5496
490.2773
615.7323
657.2216
0.1000000 0.1000000 0.0000000
117.4585
125.8092
258.9657
363.2064
405.4713
666.7050
0.1000000 0.1000000 0.1000000
151.9760
164.1986
305.9704
354.0137
393.8034
653.8742
0.1000000 0.1000000 0.2000000
206.5626
231.4065
323.0600
359.4954
415.6923
613.7051
0.1000000 0.1000000 0.3000000
263.1105
274.3271
296.5231
308.8565
521.6238
542.6528
0.1000000 0.1000000 0.4000000
220.0534
246.1943
313.9209
348.9435
441.8220
600.0796
0.1000000 0.1000000 -0.5000000
163.4875
180.1453
326.7805
350.2785
387.8516
647.1140
0.1000000 0.2000000 0.0000000
181.5740
202.5849
350.6926
424.1861
468.8762
643.4232
0.1000000 0.2000000 0.1000000
204.3372
221.2092
368.9630
430.5629
453.8605
636.0949
0.1000000 0.2000000 0.2000000
258.5908
264.3039
365.7988
411.8750
482.4961
611.5648
0.1000000 0.2000000 0.3000000
304.3491
307.5077
349.6903
357.7820
551.1566
565.1401
0.1000000 0.2000000 0.4000000
271.7715
276.2442
360.1671
399.5102
498.8748
602.8635
0.1000000 0.2000000 -0.5000000
215.1311
229.8277
372.5789
437.1310
446.7686
632.1175
0.1000000 0.3000000 0.0000000
247.5357
264.6885
409.6051
501.0986
541.4211
607.6125
0.1000000 0.3000000 0.1000000
250.0025
282.7462
414.7890
500.1517
525.8921
617.4028
0.1000000 0.3000000 0.2000000
279.6649
319.9098
405.3104
448.8320
556.9501
621.2030
0.1000000 0.3000000 0.3000000
330.8407
339.2396
389.6209
395.8797
596.7059
603.8524
0.1000000 0.3000000 0.4000000
290.9021
328.8062
399.7978
434.7782
566.8956
619.2016
0.1000000 0.3000000 -0.5000000
253.8191
290.4157
414.8924
491.8054
529.0440
619.7948
0.1000000 0.4000000 0.0000000
303.4175
307.1208
449.5383
553.1263
564.6542
600.5840
0.1000000 0.4000000 0.1000000
291.7758
326.3683
446.9665
516.7530
577.7182
624.6192
0.1000000 0.4000000 0.2000000
298.2816
359.3258
421.7155
464.4985
610.2273
643.9377
0.1000000 0.4000000 0.3000000
338.6504
350.4907
415.5749
423.7630
637.5511
641.3564
0.1000000 0.4000000 0.4000000
304.9417
365.8050
412.9968
454.2447
617.7872
645.3910
0.1000000 0.4000000 -0.5000000
290.4780
333.3109
443.9019
504.0839
584.4394
630.7656
0.2000000 0.2000000 0.0000000
224.2346
235.0542
397.4687
468.4066
521.7966
621.5349
0.2000000 0.2000000 0.1000000
233.9816
255.1397
400.1119
479.0623
504.1866
623.2810
0.2000000 0.2000000 0.2000000
274.1240
297.8006
386.1464
442.2683
533.3631
616.9096
0.2000000 0.2000000 0.3000000
325.0411
331.3631
371.4188
381.2049
581.5411
590.6835
0.2000000 0.2000000 0.4000000
286.5462
308.8897
380.1129
427.9529
545.2136
612.7824
0.2000000 0.2000000 -0.5000000
240.6116
263.7617
399.0329
478.7790
502.6209
623.1450
0.2000000 0.3000000 0.0000000
277.3333
312.8675
424.6586
541.2602
555.1258
587.6028
0.2000000 0.3000000 0.1000000
271.2450
325.8977
437.4629
507.9071
555.2686
610.6932
0.2000000 0.3000000 0.2000000
284.5883
352.9533
437.5140
450.0196
581.4085
625.2178
0.2000000 0.3000000 0.3000000
330.6385
342.3820
420.5447
424.8501
611.8178
616.8911
0.2000000 0.3000000 0.4000000
293.0475
357.2710
429.6918
442.4910
589.1082
625.3641
0.2000000 0.3000000 -0.5000000
271.1758
331.8039
440.5928
494.1491
559.5338
615.9164
0.2000000 0.4000000 0.0000000
330.5571
373.2662
463.9444
545.9792
567.2657
594.8488
0.2000000 0.4000000 0.1000000
311.5169
383.3571
477.7015
498.7554
593.7509
609.4718
0.2000000 0.4000000 0.2000000
299.3767
387.4612
449.3235
490.4151
613.5394
633.4945
0.2000000 0.4000000 0.3000000
327.6242
339.0562
466.1884
472.2493
633.4526
635.9973
0.2000000 0.4000000 0.4000000
302.2230
379.1100
449.4748
487.9412
618.9221
636.1258
0.2000000 0.4000000 -0.5000000
305.9668
387.1713
475.5113
491.4333
597.5943
616.4416
0.3000000 0.3000000 0.0000000
312.7617
314.4413
454.1900
557.5358
559.0284
604.1770
0.3000000 0.3000000 0.1000000
296.9904
335.4178
451.6799
514.8249
581.6759
625.6852
0.3000000 0.3000000 0.2000000
299.3326
366.6088
423.5858
468.0848
613.7700
645.2176
0.3000000 0.3000000 0.3000000
337.1298
349.0198
423.0680
431.1292
640.0420
643.5970
0.3000000 0.3000000 0.4000000
305.1518
371.3636
415.3701
459.2167
621.1005
646.8647
0.3000000 0.3000000 -0.5000000
294.7236
342.2438
448.2477
502.8856
588.4783
631.7271
P = 5159.2700	V = 81.0010	E = -654.78069137000000	S_el = 0.00001956552143
0.0000000 0.0000000 0.0000000
0.0000
0.0000
0.0000
394.3869
394.3869
809.7906
0.0000000 0.0000000 0.1000000
98.1743
98.1743
228.6770
381.5765
381.5765
790.3470
0.0000000 0.0000000 0.2000000
186.9163
186.9163
342.7615
342.7615
432.9177
730.6680
0.0000000 0.0000000 0.3000000
264.8460
264.8460
281.5352
281.5352
595.5334
626.7968
0.0000000 0.0000000 0.4000000
206.1362
206.1362
330.1132
330.1132
475.2444
710.4306
0.0000000 0.0000000 -0.5000000
120.0356
120.0356
279.6324
374.7853
374.7853
780.0594
0.0000000 0.1000000 0.0000000
98.5899
103.7234
223.8509
409.1618
438.1321
799.5458
0.0000000 0.1000000 0.1000000
143.9056
163.7629
302.5485
397.0828
425.0863
781.7585
0.0000000 0.1000000 0.2000000
216.3845
240.2647
360.6304
386.1806
461.2749
727.3206
0.0000000 0.1000000 0.3000000
287.7653
303.3297
311.3440
327.0917
604.7671
632.9846
0.0000000 0.1000000 0.4000000
233.6647
257.3891
348.7767
373.8180
497.8643
708.8949
0.0000000 0.1000000 -0.5000000
160.0958
182.4942
337.7238
390.6926
418.2537
772.3609
0.0000000 0.2000000 0.0000000
191.6982
195.4546
417.1276
444.4817
535.0644
769.8633
0.0000000 0.2000000 0.1000000
220.9511
229.6534
434.0145
455.0566
519.2916
758.5920
0.0000000 0.2000000 0.2000000
277.1294
305.4848
402.0648
469.7377
547.4403
723.0226
0.0000000 0.2000000 0.3000000
338.5080
352.1045
384.5771
402.3549
640.2429
659.3218
0.0000000 0.2000000 0.4000000
291.6999
324.2883
391.7464
455.6100
570.0790
710.7008
0.0000000 0.2000000 -0.5000000
232.5607
246.0264
428.2646
472.4460
511.8518
752.5616
0.0000000 0.3000000 0.0000000
265.6173
275.2024
483.5978
558.6339
635.2477
724.3513
0.0000000 0.3000000 0.1000000
285.8561
291.4462
474.0519
576.4596
611.0804
733.4101
0.0000000 0.3000000 0.2000000
334.0451
343.1137
445.7761
525.2807
648.1547
734.5889
0.0000000 0.3000000 0.3000000
389.0163
401.2262
421.1709
441.2575
700.5729
710.1649
0.0000000 0.3000000 0.4000000
346.9933
359.7434
436.6123
506.3883
661.5496
731.3332
0.0000000 0.3000000 -0.5000000
295.4938
300.3962
469.0568
573.9826
611.1502
735.5038
0.0000000 0.4000000 0.0000000
310.0538
346.5836
514.8212
645.5399
670.3757
710.3858
0.0000000 0.4000000 0.1000000
328.1697
347.6603
505.6192
611.0836
676.7269
742.0742
0.0000000 0.4000000 0.2000000
370.3518
372.5420
478.6376
532.0780
720.2632
765.3508
0.0000000 0.4000000 0.3000000
424.6296
430.0425
436.2390
448.0934
755.7124
760.8135
0.0000000 0.4000000 0.4000000
381.2502
384.6617
469.9285
512.0948
730.1907
766.8736
0.0000000 0.4000000 -0.5000000
336.9249
349.9321
500.8299
593.9990
686.0689
749.7484
0.0000000 -0.5000000 0.0000000
331.6721
399.8179
533.1404
622.2187
688.6413
750.6479
0.0000000 -0.5000000 0.1000000
348.8915
390.4134
523.8532
587.8478
713.4524
768.5791
0.0000000 -0.5000000 0.2000000
390.5148
391.7182
496.7886
518.6283
756.8466
790.6690
0.0000000 -0.5000000 0.3000000
430.2545
443.0800
445.1091
454.6229
787.2517
790.9796
0.0000000 -0.5000000 0.4000000
395.8216
403.8171
488.0906
500.7732
765.8368
793.0621
0.0000000 -0.5000000 -0.5000000
357.2835
387.8798
519.0327
573.3166
723.5304
774.8987
0.1000000 0.1000000 0.0000000
138.0623
147.5729
305.8734
425.1088
473.6542
789.4685
0.1000000 0.1000000 0.1000000
178.5102
191.3136
361.6490
414.5118
459.9355
773.5599
0.1000000 0.1000000 0.2000000
242.2285
269.2014
378.0560
419.2777
490.9816
724.8663
0.1000000 0.1000000 0.3000000
307.9896
321.0947
345.0504
359.5580
615.4953
640.5714
0.1000000 0.1000000 0.4000000
258.1046
286.5794
367.2197
406.6326
522.0297
708.3786
0.1000000 0.1000000 -0.5000000
192.1662
209.9368
385.9861
410.6169
452.8362
765.1564
0.1000000 0.2000000 0.0000000
212.5574
237.1683
412.3240
498.7329
547.3217
760.2747
0.1000000 0.2000000 0.1000000
238.7730
258.6628
432.3119
507.6133
529.4650
751.5870
0.1000000 0.2000000 0.2000000
301.3414
308.4270
427.1157
479.3895
570.1280
722.5861
0.1000000 0.2000000 0.3000000
355.1077
358.4553
406.8781
415.9739
651.0772
667.7792
0.1000000 0.2000000 0.4000000
317.1047
322.0298
420.3346
464.5816
589.6696
712.1763
0.1000000 0.2000000 -0.5000000
251.4047
268.6964
435.9465
515.3941
521.5655
746.8179
0.1000000 0.3000000 0.0000000
288.7772
309.8245
479.0017
590.1218
634.0601
715.4627
0.1000000 0.3000000 0.1000000
292.1997
330.3815
484.4931
584.5833
619.9414
727.8190
0.1000000 0.3000000 0.2000000
326.5011
373.1079
473.0305
522.8984
657.5353
733.2981
0.1000000 0.3000000 0.3000000
385.2617
395.0841
454.4717
461.6690
704.4242
712.9920
0.1000000 0.3000000 0.4000000
339.5310
383.4468
466.4738
506.3276
669.3652
731.0038
0.1000000 0.3000000 -0.5000000
296.7586
339.2948
484.4613
573.6627
624.5639
730.9598
0.1000000 0.4000000 0.0000000
355.5041
357.0969
525.1734
649.7253
662.0265
706.2998
0.1000000 0.4000000 0.1000000
340.8278
381.3960
521.9037
603.9779
680.9189
734.9477
0.1000000 0.4000000 0.2000000
349.0816
419.3264
492.3517
543.0591
719.2318
759.1161
0.1000000 0.4000000 0.3000000
395.4099
409.0733
485.7522
495.3904
751.7889
756.3925
0.1000000 0.4000000 0.4000000
356.8925
426.7140
482.3328
530.9345
728.3068
761.0219
0.1000000 0.4000000 -0.5000000
339.5298
389.5620
518.1818
588.9502
688.9490
742.6470
0.2000000 0.2000000 0.0000000
262.3376
275.1531
465.2539
551.8195
610.2663
732.8657
0.2000000 0.2000000 0.1000000
273.6888
298.3444
467.6804
562.3394
591.5118
735.4740
0.2000000 0.2000000 0.2000000
319.9646
347.4462
450.9012
514.7800
629.7718
728.6049
0.2000000 0.2000000 0.3000000
378.9399
386.2727
432.6688
443.7830
686.7000
697.6714
0.2000000 0.2000000 0.4000000
334.4481
360.3338
443.7021
497.7821
643.9086
723.7210
0.2000000 0.2000000 -0.5000000
281.4603
308.3906
466.2299
559.1353
592.4249
735.5029
0.2000000 0.3000000 0.0000000
322.9960
365.2980
496.0877
635.5431
652.5996
690.5120
0.2000000 0.3000000 0.1000000
316.7201
380.0599
510.4810
592.8226
656.0608
718.7623
0.2000000 0.3000000 0.2000000
332.5341
410.7930
510.3959
525.0733
686.4500
737.3941
0.2000000 0.3000000 0.3000000
385.0731
398.5821
490.9270
495.8893
722.0491
728.0773
0.2000000 0.3000000 0.4000000
342.3353
415.6716
501.3661
516.2058
695.5362
737.7589
0.2000000 0.3000000 -0.5000000
316.8470
386.8564
514.0457
576.3898
661.1241
725.4086
0.2000000 0.4000000 0.0000000
384.0246
435.6470
541.1327
639.1831
663.1101
702.5682
0.2000000 0.4000000 0.1000000
363.1358
446.7414
557.0188
582.6072
700.2958
716.2503
0.2000000 0.4000000 0.2000000
350.3411
450.4475
525.7229
572.5743
723.6129
745.7903
0.2000000 0.4000000 0.3000000
382.7549
395.8845
544.6710
551.7367
746.6670
749.6170
0.2000000 0.4000000 0.4000000
353.7681
440.9287
525.8006
569.7444
729.8959
749.2209
0.2000000 0.4000000 -0.5000000
357.0253
450.9193
554.7926
573.7988
705.2347
724.6020
0.3000000 0.3000000 0.0000000
365.5621
366.2160
530.4608
654.6742
655.0651
710.8718
0.3000000 0.3000000 0.1000000
346.7710
391.9001
527.2538
601.8070
685.3275
736.2288
0.3000000 0.3000000 0.2000000
350.3596
427.6562
494.6274
547.3928
723.2840
760.5364
0.3000000 0.3000000 0.3000000
393.7549
407.4668
494.5452
504.0437
754.6367
758.9438
0.3000000 0.3000000 0.4000000
357.2107
432.9754
485.3193
536.8661
732.0975
762.6721
0.3000000 0.3000000 -0.5000000
344.3811
399.9045
523.1000
587.7012
693.5052
743.7504
weight
   0.0000000   0.0000000   0.0000000   0.0020000
   0.0000000   0.0000000   0.1000000   0.0040000
   0.0000000   0.0000000   0.2000000   0.0040000
   0.0000000   0.0000000   0.3000000   0.0040000
   0.0000000   0.0000000   0.4000000   0.0040000
   0.0000000   0.0000000  -0.5000000   0.0020000
   0.0000000   0.1000000   0.0000000   0.0120000
   0.0000000   0.1000000   0.1000000   0.0240000
   0.0000000   0.1000000   0.2000000   0.0240000
   0.0000000   0.1000000   0.3000000   0.0240000
   0.0000000   0.1000000   0.4000000   0.0240000
   0.0000000   0.1000000  -0.5000000   0.0120000
   0.0000000   0.2000000   0.0000000   0.0120000
   0.0000000   0.2000000   0.1000000   0.0240000
   0.0000000   0.2000000   0.2000000   0.0240000
   0.0000000   0.2000000   0.3000000   0.0240000
   0.0000000   0.2000000   0.4000000   0.0240000
   0.0000000   0.2000000  -0.5000000   0.0120000
   0.0000000   0.3000000   0.0000000   0.0120000
   0.0000000   0.3000000   0.1000000   0.0240000
   0.0000000   0.3000000   0.2000000   0.0240000
   0.0000000   0.3000000   0.3000000   0.0240000
   0.0000000   0.3000000   0.4000000   0.0240000
   0.0000000   0.3000000  -0.5000000   0.0120000
   0.0000000   0.4000000   0.0000000   0.0120000
   0.0000000   0.4000000   0.1000000   0.0240000
   0.0000000   0.4000000   0.2000000   0.0240000
   0.0000000   0.4000000   0.3000000   0.0240000
   0.0000000   0.4000000   0.4000000   0.0240000
   0.0000000   0.4000000  -0.5000000   0.0120000
   0.0000000  -0.5000000   0.0000000   0.0060000
   0.0000000  -0.5000000   0.1000000   0.0120000
   0.0000000  -0.5000000   0.2000000   0.0120000
   0.0000000  -0.5000000   0.3000000   0.0120000
   0.0000000  -0.5000000   0.4000000   0.0120000
   0.0000000  -0.5000000  -0.5000000   0.0060000
   0.1000000   0.1000000   0.0000000   0.0120000
   0.1000000   0.1000000   0.1000000   0.0240000
   0.1000000   0.1000000   0.2000000   0.0240000
   0.1000000   0.1000000   0.3000000   0.0240000
   0.1000000   0.1000000   0.4000000   0.0240000
   0.1000000   0.1000000  -0.5000000   0.0120000
   0.1000000   0.2000000   0.0000000   0.0240000
   0.1000000   0.2000000   0.1000000   0.0480000
   0.1000000   0.2000000   0.2000000   0.0480000
   0.1000000   0.2000000   0.3000000   0.0480000
   0.1000000   0.2000000   0.4000000   0.0480000
   0.1000000   0.2000000  -0.5000000   0.0240000
   0.1000000   0.3000000   0.0000000   0.0240000
   0.1000000   0.3000000   0.1000000   0.0480000
   0.1000000   0.3000000   0.2000000   0.0480000
   0.1000000   0.3000000   0.3000000   0.0480000
   0.1000000   0.3000000   0.4000000   0.0480000
   0.1000000   0.3000000  -0.5000000   0.0240000
   0.1000000   0.4000000   0.0000000   0.0240000
   0.1000000   0.4000000   0.1000000   0.0480000
   0.1000000   0.4000000   0.2000000   0.0480000
   0.1000000   0.4000000   0.3000000   0.0480000
   0.1000000   0.4000000   0.4000000   0.0480000
   0.1000000   0.4000000  -0.5000000   0.0240000
   0.2000000   0.2000000   0.0000000   0.0120000
   0.2000000   0.2000000   0.1000000   0.0240000
   0.2000000   0.2000000   0.2000000   0.0240000
   0.2000000   0.2000000   0.3000000   0.0240000
   0.2000000   0.2000000   0.4000000   0.0240000
   0.2000000   0.2000000  -0.5000000   0.0120000
   0.2000000   0.3000000   0.0000000   0.0240000
   0.2000000   0.3000000   0.1000000   0.0480000
   0.2000000   0.3000000   0.2000000   0.0480000
   0.2000000   0.3000000   0.3000000   0.0480000
   0.2000000   0.3000000   0.4000000   0.0480000
   0.2000000   0.3000000  -0.5000000   0.0240000
   0.2000000   0.4000000   0.0000000   0.0120000
   0.2000000   0.4000000   0.1000000   0.0240000
   0.2000000   0.4000000   0.2000000   0.0240000
   0.2000000   0.4000000   0.3000000   0.0240000
   0.2000000   0.4000000   0.4000000   0.0240000
   0.2000000   0.4000000  -0.5000000   0.0120000
   0.3000000   0.3000000   0.0000000   0.0120000
   0.3000000   0.3000000   0.1000000   0.0240000
   0.3000000   0.3000000   0.2000000   0.0240000
   0.3000000   0.3000000   0.3000000   0.0240000
   0.3000000   0.3000000   0.4000000   0.0240000
   0.3000000   0.3000000  -0.5000000   0.0120000