Number of volumes (nv), q-vectors (nq), normal mode (np), formula units(nm)
10 84 6 1
P = 255.7900	V = 138.4189	E = -655.28933885000000	S_el = 0.00004360329875
0.0000000 0.0000000 0.0000000
0.0000
0.0000
0.0000
172.5665
172.5665
347.1897
0.0000000 0.0000000 0.1000000
43.7137
43.7137
99.9598
166.8386
166.8386
339.6858
0.0000000 0.0000000 0.2000000
82.6979
82.6979
149.4539
149.4539
188.0039
314.5961
0.0000000 0.0000000 0.3000000
116.5786
116.5786
122.2695
122.2695
258.0206
268.7099
0.0000000 0.0000000 0.4000000
89.2297
89.2297
145.0872
145.0872
202.2784
307.7682
0.0000000 0.0000000 -0.5000000
51.3094
51.3094
117.2672
164.5211
164.5211
336.5263
0.0000000 0.1000000 0.0000000
42.0896
45.7835
94.9309
180.2578
193.5622
343.6247
0.0000000 0.1000000 0.1000000
63.5715
77.5252
127.9266
174.8831
188.0901
336.1572
0.0000000 0.1000000 0.2000000
95.6862
110.9289
158.3866
171.6366
198.1122
312.2417
0.0000000 0.1000000 0.3000000
127.0689
132.4696
141.1417
146.3723
260.4595
270.1369
0.0000000 0.1000000 0.4000000
101.5960
116.6173
154.2206
167.5545
210.6207
305.8898
0.0000000 0.1000000 -0.5000000
69.2171
84.2575
140.0435
172.6966
185.8900
333.0737
0.0000000 0.2000000 0.0000000
81.8501
87.7793
177.8492
198.0924
238.2593
333.3729
0.0000000 0.2000000 0.1000000
97.4660
106.6937
192.7954
194.0303
232.2176
327.2146
0.0000000 0.2000000 0.2000000
122.8758
144.4924
178.7130
213.4967
232.0577
308.9731
0.0000000 0.2000000 0.3000000
150.4675
155.3346
179.5235
185.4600
272.5082
279.1490
0.0000000 0.2000000 0.4000000
127.9436
151.2046
174.9636
209.0826
239.7115
304.3483
0.0000000 0.2000000 -0.5000000
101.5826
113.5489
191.4743
199.2185
229.8321
324.7586
0.0000000 0.3000000 0.0000000
116.6334
123.2490
216.7982
240.6107
281.2012
317.7011
0.0000000 0.3000000 0.1000000
126.5175
131.9135
212.6703
250.8097
270.1853
318.4798
0.0000000 0.3000000 0.2000000
148.9927
158.2954
199.6672
240.2950
275.8676
314.8215
0.0000000 0.3000000 0.3000000
174.2044
178.6380
195.8792
203.1209
298.4546
301.8681
0.0000000 0.3000000 0.4000000
153.6089
164.6660
196.3241
234.0061
280.3151
313.1883
0.0000000 0.3000000 -0.5000000
130.0416
135.4907
210.9706
254.0252
266.5641
318.3732
0.0000000 0.4000000 0.0000000
136.7716
158.1999
230.6458
281.0484
298.7913
310.6768
0.0000000 0.4000000 0.1000000
145.8554
156.4204
226.8745
275.8828
291.7067
322.9891
0.0000000 0.4000000 0.2000000
165.5656
167.5545
215.1049
242.2117
308.9601
329.7359
0.0000000 0.4000000 0.3000000
191.5238
194.8270
197.1090
203.1954
323.6923
325.5646
0.0000000 0.4000000 0.4000000
169.7603
172.0185
212.0673
235.2276
312.1074
329.7860
0.0000000 0.4000000 -0.5000000
149.1565
156.6562
225.3330
270.4973
294.4825
324.9994
0.0000000 -0.5000000 0.0000000
146.8800
184.6684
238.1303
281.1970
301.6946
325.3839
0.0000000 -0.5000000 0.1000000
155.6085
177.7426
234.5505
265.5222
310.8544
332.5023
0.0000000 -0.5000000 0.2000000
174.3552
177.0317
223.4947
233.6124
326.8183
340.0339
0.0000000 -0.5000000 0.3000000
193.5158
198.4433
201.4621
204.9370
338.0271
339.1957
0.0000000 -0.5000000 0.4000000
176.3263
181.2454
220.6315
227.1233
329.4138
340.5811
0.0000000 -0.5000000 -0.5000000
158.8279
176.0500
233.1001
260.3878
313.7509
334.3066
0.1000000 0.1000000 0.0000000
59.9581
65.0006
129.6687
188.1960
210.2621
340.1345
0.1000000 0.1000000 0.1000000
79.1327
90.2689
152.6958
183.3307
204.7725
332.9086
0.1000000 0.1000000 0.2000000
107.4335
126.1451
167.2028
188.2883
209.2122
310.5162
0.1000000 0.1000000 0.3000000
136.4528
141.2100
158.4575
163.3580
263.6855
272.3405
0.1000000 0.1000000 0.4000000
112.8704
131.9373
163.4132
184.2402
219.8769
304.6860
0.1000000 0.1000000 -0.5000000
83.8977
97.5462
161.3565
181.4881
202.5737
329.9679
0.1000000 0.2000000 0.0000000
93.7223
106.4414
178.4352
218.1349
244.1396
330.0919
0.1000000 0.2000000 0.1000000
109.5104
116.9216
189.7849
218.6922
237.5598
324.8048
0.1000000 0.2000000 0.2000000
137.2150
142.5943
191.5107
218.2710
241.3129
308.8859
0.1000000 0.2000000 0.3000000
159.3198
161.4068
187.6180
191.5412
276.5994
282.4863
0.1000000 0.2000000 0.4000000
141.9065
148.0129
189.3997
213.6219
247.8418
304.8100
0.1000000 0.2000000 -0.5000000
114.2456
121.0573
192.4260
220.0442
235.0666
322.6813
0.1000000 0.3000000 0.0000000
129.8090
139.1262
214.5591
254.5769
280.4999
314.7011
0.1000000 0.3000000 0.1000000
131.8639
149.2371
217.6991
258.4111
269.7668
317.1400
0.1000000 0.3000000 0.2000000
149.3690
169.0164
212.8482
239.4399
279.3269
315.1518
0.1000000 0.3000000 0.3000000
176.7407
179.8591
206.7146
209.9272
299.8991
303.1008
0.1000000 0.3000000 0.4000000
154.3178
172.7689
210.6774
233.6705
283.2599
313.6990
0.1000000 0.3000000 -0.5000000
133.6970
152.4656
217.8632
258.7219
267.6604
317.4317
0.1000000 0.4000000 0.0000000
159.1596
163.7019
236.9717
282.8788
295.9792
308.1139
0.1000000 0.4000000 0.1000000
153.7750
172.1318
235.6010
273.8220
292.9465
320.8410
0.1000000 0.4000000 0.2000000
156.7066
189.5930
223.6455
246.3941
308.2136
328.2238
0.1000000 0.4000000 0.3000000
181.2270
186.6651
218.7328
222.1877
322.1279
323.9609
0.1000000 0.4000000 0.4000000
159.7314
192.6368
220.1161
241.4671
311.1354
328.2667
0.1000000 0.4000000 -0.5000000
152.9740
174.9135
234.4803
269.1416
295.2593
323.0432
0.2000000 0.2000000 0.0000000
116.6514
123.0425
207.1760
238.2035
270.8741
320.6732
0.2000000 0.2000000 0.1000000
123.3138
134.6738
209.4611
243.8274
262.0046
319.2979
0.2000000 0.2000000 0.2000000
146.1389
158.3200
202.3920
235.5630
267.2683
312.1178
0.2000000 0.2000000 0.3000000
171.6298
174.4789
198.7386
203.6030
291.9822
295.9211
0.2000000 0.2000000 0.4000000
151.2145
163.1933
199.9438
229.9477
271.9591
309.8529
0.2000000 0.2000000 -0.5000000
126.4918
138.4131
209.2293
246.3290
258.8959
318.5564
0.2000000 0.3000000 0.0000000
146.5708
165.8952
223.3285
274.9298
287.0573
306.1258
0.2000000 0.3000000 0.1000000
143.1827
173.0807
230.0240
268.4997
279.6144
315.2049
0.2000000 0.3000000 0.2000000
150.7372
187.4453
230.4750
240.3926
291.8078
318.7930
0.2000000 0.3000000 0.3000000
178.0097
183.1716
221.9349
223.3253
307.9378
310.4368
0.2000000 0.3000000 0.4000000
154.6065
189.4717
228.3085
235.8324
294.8610
318.0709
0.2000000 0.3000000 -0.5000000
143.0510
175.5537
231.3311
263.8526
280.9000
316.7680
0.2000000 0.4000000 0.0000000
176.9233
197.9068
245.5958
287.8522
293.8509
301.6881
0.2000000 0.4000000 0.1000000
166.2484
203.7915
252.3673
266.9216
300.0723
315.7821
0.2000000 0.4000000 0.2000000
157.3807
208.8181
240.6007
257.0024
309.7053
325.6510
0.2000000 0.4000000 0.3000000
175.7487
181.7774
244.6525
246.8560
320.6055
322.1546
0.2000000 0.4000000 0.4000000
158.3899
206.2572
239.2919
255.6072
311.8710
325.8424
0.2000000 0.4000000 -0.5000000
163.5041
205.6106
252.5790
263.2496
301.3593
318.6413
0.3000000 0.3000000 0.0000000
163.7988
168.3849
239.5691
285.4390
293.5145
309.6016
0.3000000 0.3000000 0.1000000
156.8563
177.0833
238.2901
273.1690
295.2225
321.3630
0.3000000 0.3000000 0.2000000
157.2033
193.7103
225.2540
247.8077
310.2344
329.1220
0.3000000 0.3000000 0.3000000
180.4376
186.0404
222.4962
225.8405
323.5655
325.3013
0.3000000 0.3000000 0.4000000
159.8064
196.2255
221.6743
243.4268
313.0514
329.2408
0.3000000 0.3000000 -0.5000000
155.6050
179.8287
237.1036
268.6403
297.5894
323.6085
P = 458.1300	V = 130.1411	E = -655.29146054000000	S_el = 0.00004087139875
0.0000000 0.0000000 0.0000000
0.0000
0.0000
0.0000
190.9720
190.9720
387.7472
0.0000000 0.0000000 0.1000000
48.8284
48.8284
110.3504
184.6317
184.6317
379.2636
0.0000000 0.0000000 0.2000000
91.8253
91.8253
165.3788
165.3788
208.6729
351.2186
0.0000000 0.0000000 0.3000000
128.9344
128.9344
135.4161
135.4161
287.4983
299.9411
0.0000000 0.0000000 0.4000000
99.2491
99.2491
160.3691
160.3691
225.2996
343.3201
0.0000000 0.0000000 -0.5000000
57.5444
57.5444
130.2653
181.9612
181.9612
375.5785
0.0000000 0.1000000 0.0000000
46.0534
50.4075
106.1243
199.3154
214.4238
383.6802
0.0000000 0.1000000 0.1000000
70.5173
84.5520
142.5793
193.3754
208.3205
375.3675
0.0000000 0.1000000 0.2000000
106.0311
122.2682
175.1699
189.9718
220.2688
348.7785
0.0000000 0.1000000 0.3000000
140.5116
146.6640
155.8987
161.9181
290.3776
301.6662
0.0000000 0.1000000 0.4000000
112.7759
128.8644
170.4082
185.2623
234.7894
341.4332
0.0000000 0.1000000 -0.5000000
77.0136
92.4234
156.3624
190.8629
205.7687
371.8113
0.0000000 0.2000000 0.0000000
90.3638
95.9551
198.8023
218.8081
264.6265
371.9422
0.0000000 0.2000000 0.1000000
107.7597
115.9806
213.8738
215.9926
257.7641
365.2996
0.0000000 0.2000000 0.2000000
135.8597
158.1172
197.5273
236.4423
259.2445
345.3248
0.0000000 0.2000000 0.3000000
166.3365
171.8887
197.8595
204.8299
304.3851
312.0995
0.0000000 0.2000000 0.4000000
141.6778
166.0052
193.2676
231.2885
268.0547
340.0113
0.0000000 0.2000000 -0.5000000
112.4799
123.7639
211.4357
222.9173
254.9494
362.5359
0.0000000 0.3000000 0.0000000
128.9889
134.7575
239.5341
269.0307
313.3727
353.9137
0.0000000 0.3000000 0.1000000
139.7984
144.3421
234.9758
280.3537
300.6486
355.2522
0.0000000 0.3000000 0.2000000
164.6051
173.6834
220.7054
266.1838
308.7651
351.7869
0.0000000 0.3000000 0.3000000
192.5311
197.6031
215.7791
224.2232
333.8617
337.7588
0.0000000 0.3000000 0.4000000
169.9129
181.0641
216.9041
258.7967
313.9004
349.9891
0.0000000 0.3000000 -0.5000000
143.8251
148.4612
233.0318
283.7280
296.6705
355.2537
0.0000000 0.4000000 0.0000000
151.2634
173.4548
255.1738
314.4726
332.1022
347.3494
0.0000000 0.4000000 0.1000000
161.2153
172.0188
250.9641
306.2777
326.5738
360.9136
0.0000000 0.4000000 0.2000000
183.0256
184.6783
237.8995
267.9418
346.0855
368.8014
0.0000000 0.4000000 0.3000000
211.6364
215.4693
217.3005
224.3125
362.4757
364.5780
0.0000000 0.4000000 0.4000000
187.8188
189.8058
234.4088
259.7798
349.7444
368.9350
0.0000000 0.4000000 -0.5000000
164.9875
172.4468
249.1801
299.8394
329.8755
363.2874
0.0000000 -0.5000000 0.0000000
162.4553
202.9691
263.8082
311.8167
337.8141
364.6404
0.0000000 -0.5000000 0.1000000
172.0749
195.5426
259.7593
294.2780
348.1887
372.4612
0.0000000 -0.5000000 0.2000000
192.5240
195.2520
247.3083
258.4113
366.2811
380.9771
0.0000000 -0.5000000 0.3000000
213.4364
219.3620
222.3714
226.6150
378.8890
380.2209
0.0000000 -0.5000000 0.4000000
194.4324
200.4586
243.9752
250.8738
369.3164
381.6400
0.0000000 -0.5000000 -0.5000000
175.7616
193.6795
258.0548
288.2744
351.5959
374.5495
0.1000000 0.1000000 0.0000000
65.3071
71.8841
144.9350
208.0484
233.1247
379.6904
0.1000000 0.1000000 0.1000000
87.5745
98.0686
170.5140
202.7279
226.9581
371.7401
0.1000000 0.1000000 0.2000000
118.9070
138.4925
184.8449
208.4518
233.0878
346.9652
0.1000000 0.1000000 0.3000000
150.8651
156.2668
174.8997
180.5814
294.1666
304.2611
0.1000000 0.1000000 0.4000000
125.1314
145.2934
180.5315
203.7567
245.4123
340.2315
0.1000000 0.1000000 -0.5000000
93.0575
106.4435
180.3439
200.6757
224.3921
368.3786
0.1000000 0.2000000 0.0000000
102.2667
117.5998
198.4980
242.3152
271.2338
368.1712
0.1000000 0.2000000 0.1000000
119.2838
128.9498
210.4638
243.7325
263.7020
362.4911
0.1000000 0.2000000 0.2000000
151.4585
156.1230
211.5911
241.7725
269.8268
345.1549
0.1000000 0.2000000 0.3000000
176.0174
178.2552
207.0257
211.5606
309.1133
315.9169
0.1000000 0.2000000 0.4000000
156.9456
162.4440
209.2021
236.3105
277.3504
340.5010
0.1000000 0.2000000 -0.5000000
124.9050
133.4275
213.1478
245.7715
260.6538
360.1119
0.1000000 0.3000000 0.0000000
141.9899
153.7538
237.4289
284.4686
312.5887
350.4412
0.1000000 0.3000000 0.1000000
144.4146
164.7060
240.6975
288.5788
300.4597
353.5230
0.1000000 0.3000000 0.2000000
163.9235
186.6054
235.4237
265.0309
312.8200
351.9470
0.1000000 0.3000000 0.3000000
194.6987
198.3983
228.4989
232.1075
335.5767
339.1857
0.1000000 0.3000000 0.4000000
169.6622
190.9088
232.9629
258.2680
317.3626
350.4033
0.1000000 0.3000000 -0.5000000
146.5332
168.4112
240.8589
287.9999
298.8455
353.9601
0.1000000 0.4000000 0.0000000
176.0393
179.5082
262.2357
316.5969
328.8326
344.4628
0.1000000 0.4000000 0.1000000
169.1778
190.0531
260.7161
303.6490
328.0158
358.2788
0.1000000 0.4000000 0.2000000
172.5731
209.6376
247.2054
272.4652
345.3264
366.8340
0.1000000 0.4000000 0.3000000
199.3663
205.5710
242.1992
246.1601
360.7335
362.7544
0.1000000 0.4000000 0.4000000
176.0344
213.0606
243.0839
266.9023
348.7205
367.0025
0.1000000 0.4000000 -0.5000000
168.2754
193.3607
259.4141
297.9445
330.8054
360.8304
0.2000000 0.2000000 0.0000000
127.7086
135.7692
229.3963
265.8183
301.5942
357.3319
0.2000000 0.2000000 0.1000000
135.1078
148.3045
231.5453
272.5473
291.3451
356.1017
0.2000000 0.2000000 0.2000000
160.6461
174.2919
223.7429
260.8932
299.1612
348.6708
0.2000000 0.2000000 0.3000000
189.4402
192.6633
219.3291
224.9003
326.5881
331.0847
0.2000000 0.2000000 0.4000000
166.6078
179.8647
220.9664
254.2928
304.5735
346.1550
0.2000000 0.2000000 -0.5000000
138.7474
152.5663
231.2192
275.2681
287.8869
355.3440
0.2000000 0.3000000 0.0000000
160.5142
183.3356
247.2277
307.7776
319.9211
340.5295
0.2000000 0.3000000 0.1000000
156.9470
191.2000
254.5520
298.2169
313.0523
351.1350
0.2000000 0.3000000 0.2000000
165.6151
207.0433
255.1839
265.6828
327.0132
355.7970
0.2000000 0.3000000 0.3000000
195.6867
201.6430
245.7311
247.4008
344.7330
347.4788
0.2000000 0.3000000 0.4000000
170.0706
209.3000
252.6028
260.5404
330.5426
355.1534
0.2000000 0.3000000 -0.5000000
156.8752
194.0325
256.0503
292.4621
314.7089
353.0106
0.2000000 0.4000000 0.0000000
194.1871
219.0236
272.1738
319.6466
328.3399
337.4797
0.2000000 0.4000000 0.1000000
182.4037
225.4594
279.6577
295.1959
336.2564
351.9789
0.2000000 0.4000000 0.2000000
173.1802
230.0644
265.5647
285.1349
347.1217
363.3367
0.2000000 0.4000000 0.3000000
192.9905
199.6468
271.4520
274.0739
359.0177
360.6430
0.2000000 0.4000000 0.4000000
174.4237
226.6691
264.4741
283.6512
349.6278
363.7800
0.2000000 0.4000000 -0.5000000
179.3317
227.5089
279.7213
290.8023
337.7854
355.2338
0.3000000 0.3000000 0.0000000
181.2034
184.6904
265.1716
319.4749
325.9847
346.2164
0.3000000 0.3000000 0.1000000
172.5234
195.5957
263.7416
302.7419
330.5916
358.9257
0.3000000 0.3000000 0.2000000
173.1139
214.1982
248.8681
274.0907
347.6053
367.8398
0.3000000 0.3000000 0.3000000
198.4348
204.7894
246.4608
250.3071
362.3682
364.2742
0.3000000 0.3000000 0.4000000
176.1016
216.9531
244.7247
269.2025
350.8806
368.0982
0.3000000 0.3000000 -0.5000000
171.1133
198.8493
262.3453
297.2430
333.4246
361.5059
P = 758.0600	V = 121.3918	E = -655.28014865000000	S_el = 0.00003783764125
0.0000000 0.0000000 0.0000000
0.0000
0.0000
0.0000
213.4842
213.4842
437.0552
0.0000000 0.0000000 0.1000000
54.2531
54.2531
123.4887
206.3529
206.3529
427.4299
0.0000000 0.0000000 0.2000000
102.2713
102.2713
184.8319
184.8319
234.3557
395.8968
0.0000000 0.0000000 0.3000000
143.8515
143.8515
151.4117
151.4117
323.6342
338.2645
0.0000000 0.0000000 0.4000000
110.9463
110.9463
179.0064
179.0064
253.9436
386.6539
0.0000000 0.0000000 -0.5000000
64.3422
64.3422
146.7803
203.2219
203.2219
423.0853
0.0000000 0.1000000 0.0000000
51.3976
55.9353
119.5845
222.6170
239.8062
432.3637
0.0000000 0.1000000 0.1000000
78.4484
93.0885
160.5138
215.9406
232.8890
423.1036
0.0000000 0.1000000 0.2000000
118.1578
135.6520
195.6455
212.2156
247.6084
393.4112
0.0000000 0.1000000 0.3000000
156.7848
163.9441
173.6541
180.7185
327.0542
340.3665
0.0000000 0.1000000 0.4000000
126.0455
143.4316
190.1275
206.7038
264.6905
384.8223
0.0000000 0.1000000 -0.5000000
85.9822
102.2455
176.5342
213.0002
229.8758
418.9657
0.0000000 0.2000000 0.0000000
101.3481
105.9877
223.9883
244.0972
296.4606
418.7980
0.0000000 0.2000000 0.1000000
120.0018
127.8252
238.7450
243.3095
288.5803
411.6772
0.0000000 0.2000000 0.2000000
151.4750
174.7250
220.4311
264.0965
292.3324
389.7658
0.0000000 0.2000000 0.3000000
185.6087
192.0480
219.9650
228.2270
343.3468
352.4412
0.0000000 0.2000000 0.4000000
158.2857
184.0439
215.5228
258.0000
302.6688
383.5933
0.0000000 0.2000000 -0.5000000
125.4973
136.6731
235.7333
251.6176
285.2211
408.5540
0.0000000 0.3000000 0.0000000
143.7733
149.7835
267.2269
303.1315
352.0254
397.9187
0.0000000 0.3000000 0.1000000
155.7891
160.3160
262.1143
315.8018
337.4006
399.9317
0.0000000 0.3000000 0.2000000
183.5469
192.8805
246.2739
297.4127
348.5741
396.7101
0.0000000 0.3000000 0.3000000
214.7967
220.6779
240.0422
249.9450
376.8279
381.3553
0.0000000 0.3000000 0.4000000
189.7502
201.4679
241.8889
288.6711
354.6125
394.7021
0.0000000 0.3000000 -0.5000000
160.4839
165.0638
259.8479
319.1910
333.2064
400.0743
0.0000000 0.4000000 0.0000000
168.6927
192.8565
285.0003
354.4654
372.6562
391.3008
0.0000000 0.4000000 0.1000000
179.7729
191.9277
280.2371
342.9993
368.4696
406.6096
0.0000000 0.4000000 0.2000000
204.5626
206.0034
265.5708
299.1370
390.8205
415.9222
0.0000000 0.4000000 0.3000000
236.0357
240.6988
242.0378
250.2933
409.2822
411.6788
0.0000000 0.4000000 0.4000000
210.1679
211.8632
261.5000
289.5243
395.1499
416.1710
0.0000000 0.4000000 -0.5000000
184.1679
192.6141
278.1349
335.2411
372.4493
409.4580
0.0000000 -0.5000000 0.0000000
181.2384
225.8245
295.0123
349.2232
380.9261
411.6367
0.0000000 -0.5000000 0.1000000
191.9751
217.9127
290.3744
329.3149
392.8632
420.4318
0.0000000 -0.5000000 0.2000000
215.0729
217.6750
276.1969
288.7203
413.6724
430.2199
0.0000000 -0.5000000 0.3000000
238.1641
245.3019
247.6707
252.9068
428.0556
429.5999
0.0000000 -0.5000000 0.4000000
217.2583
223.7683
272.2594
279.8904
417.2912
431.0401
0.0000000 -0.5000000 -0.5000000
196.2676
215.8714
288.3365
322.1992
396.9506
422.9043
0.1000000 0.1000000 0.0000000
72.6027
80.0297
163.3002
232.2998
260.8491
427.7563
0.1000000 0.1000000 0.1000000
97.4471
107.8305
192.1256
226.3810
253.8175
419.0244
0.1000000 0.1000000 0.2000000
132.5247
153.2934
206.3393
232.8305
262.3661
391.5241
0.1000000 0.1000000 0.3000000
168.3372
174.5921
194.6793
201.3688
331.5149
343.4304
0.1000000 0.1000000 0.4000000
139.8113
161.3612
201.3514
227.3066
276.8372
383.6627
0.1000000 0.1000000 -0.5000000
103.8161
117.4630
203.4920
224.0838
250.7705
415.1540
0.1000000 0.2000000 0.0000000
113.6654
130.8711
222.6462
271.7330
303.9000
414.4289
0.1000000 0.2000000 0.1000000
131.7922
143.2795
235.4905
274.1403
295.1908
408.3659
0.1000000 0.2000000 0.2000000
168.6274
172.6895
236.0254
270.0770
304.4745
389.4582
0.1000000 0.2000000 0.3000000
196.2841
198.7276
230.4933
235.7652
348.8091
356.7963
0.1000000 0.2000000 0.4000000
175.1236
180.1368
233.2603
263.5940
313.3169
384.0849
0.1000000 0.2000000 -0.5000000
138.4161
148.2222
238.2847
277.0313
291.4255
405.6907
0.1000000 0.3000000 0.0000000
157.7986
171.2524
265.0652
320.4981
351.1302
393.8741
0.1000000 0.3000000 0.1000000
160.4344
183.3959
268.6065
324.6317
337.6533
397.6672
0.1000000 0.3000000 0.2000000
182.0928
207.9527
262.8466
295.8640
353.3435
396.5862
0.1000000 0.3000000 0.3000000
216.5887
220.9782
254.9743
259.0640
378.8608
382.9963
0.1000000 0.3000000 0.4000000
188.7618
212.9681
260.0149
287.8850
358.6917
394.9342
0.1000000 0.3000000 -0.5000000
162.8731
187.7268
268.7812
322.8596
336.7525
398.2830
0.1000000 0.4000000 0.0000000
196.3772
199.4573
292.8116
356.9558
368.8270
388.0526
0.1000000 0.4000000 0.1000000
188.4727
211.9468
291.1334
339.5927
370.1736
403.3428
0.1000000 0.4000000 0.2000000
192.6183
233.9998
275.7468
303.9506
390.0538
413.3389
0.1000000 0.4000000 0.3000000
221.7078
228.7826
270.6918
275.2860
407.3312
409.5864
0.1000000 0.4000000 0.4000000
196.5952
237.8976
270.9022
297.6134
394.0704
413.6854
0.1000000 0.4000000 -0.5000000
187.5254
215.8771
289.5970
332.6012
373.5710
406.3384
0.2000000 0.2000000 0.0000000
142.0669
151.0876
256.2406
299.1869
338.5308
401.8706
0.2000000 0.2000000 0.1000000
150.0319
164.8838
258.3701
307.0877
326.7249
400.8427
0.2000000 0.2000000 0.2000000
178.4752
193.8209
249.6992
291.4072
337.7935
393.1541
0.2000000 0.2000000 0.3000000
211.0824
214.7828
244.3529
250.7741
368.6530
373.8754
0.2000000 0.2000000 0.4000000
185.4982
200.2908
246.5033
283.5900
344.1596
390.3236
0.2000000 0.2000000 -0.5000000
154.1860
169.8339
257.9416
309.8718
323.0529
400.0759
0.2000000 0.3000000 0.0000000
178.3703
204.2252
276.0204
347.3342
359.3382
382.3562
0.2000000 0.3000000 0.1000000
174.5448
212.9672
284.2415
333.8429
353.4047
394.5595
0.2000000 0.3000000 0.2000000
184.4420
230.6950
285.1536
296.0985
369.5549
400.4943
0.2000000 0.3000000 0.3000000
217.3844
224.2405
274.5507
276.5804
389.2886
392.3449
0.2000000 0.3000000 0.4000000
189.5775
233.2637
282.0340
290.2762
373.7168
399.9711
0.2000000 0.3000000 -0.5000000
174.5392
216.2735
286.0117
326.7139
355.5115
396.8092
0.2000000 0.4000000 0.0000000
215.8345
244.3648
304.0728
358.1579
369.6792
380.6114
0.2000000 0.4000000 0.1000000
202.7198
251.4819
312.5579
329.1155
379.7857
395.4104
0.2000000 0.4000000 0.2000000
193.2665
255.6952
295.4437
319.1179
392.2094
408.5613
0.2000000 0.4000000 0.3000000
214.3858
221.6919
303.7877
306.9622
405.3750
407.0806
0.2000000 0.4000000 0.4000000
194.8039
251.2998
294.6433
317.5419
395.1712
409.3672
0.2000000 0.4000000 -0.5000000
199.2620
253.8247
312.4813
323.7618
381.6256
399.1397
0.3000000 0.3000000 0.0000000
202.3291
205.0539
296.1300
360.1978
365.5225
390.1267
0.3000000 0.3000000 0.1000000
192.1560
218.1454
294.5416
338.3915
373.0842
404.1079
0.3000000 0.3000000 0.2000000
193.2418
239.0648
277.4583
305.8194
392.6263
414.4409
0.3000000 0.3000000 0.3000000
220.6408
227.8405
275.5290
280.0069
409.1864
411.3026
0.3000000 0.3000000 0.4000000
196.6862
242.1221
272.6301
300.3182
396.5068
414.8974
0.3000000 0.3000000 -0.5000000
190.6213
222.0086
292.8747
331.6634
376.5182
407.1125
P = 1006.4100	V = 115.9289	E = -655.26328630000000	S_el = 0.00003587494875
0.0000000 0.0000000 0.0000000
0.0000
0.0000
0.0000
229.5527
229.5527
472.1304
0.0000000 0.0000000 0.1000000
57.9014
57.9014
133.0443
221.8517
221.8517
461.6874
0.0000000 0.0000000 0.2000000
109.5457
109.5457
198.7277
198.7277
252.8123
427.6624
0.0000000 0.0000000 0.3000000
154.4684
154.4684
162.8273
162.8273
349.3746
365.5665
0.0000000 0.0000000 0.4000000
119.1578
119.1578
192.3144
192.3144
274.5185
417.4442
0.0000000 0.0000000 -0.5000000
68.9738
68.9738
158.7978
218.3868
218.3868
456.8581
0.0000000 0.1000000 0.0000000
55.4180
59.8847
129.1140
239.2440
257.8321
466.9795
0.0000000 0.1000000 0.1000000
83.9705
99.2217
173.3603
232.0334
250.3256
457.0424
0.0000000 0.1000000 0.2000000
126.6804
145.0576
210.2517
227.9944
267.2338
425.1462
0.0000000 0.1000000 0.3000000
168.3625
176.2624
186.2055
194.0349
353.2003
367.9541
0.0000000 0.1000000 0.4000000
135.4147
153.6931
204.1876
221.9008
286.1541
415.6605
0.0000000 0.1000000 -0.5000000
92.2432
109.2484
191.0468
228.7809
246.9751
452.4783
0.0000000 0.2000000 0.0000000
109.3901
113.2800
241.8009
262.1214
318.9113
452.0758
0.0000000 0.2000000 0.1000000
128.6713
136.5548
256.2080
262.9151
310.3048
444.6256
0.0000000 0.2000000 0.2000000
162.5498
186.5920
236.7287
283.5610
315.8925
421.3716
0.0000000 0.2000000 0.3000000
199.3084
206.3910
235.5462
244.7194
371.1016
381.1857
0.0000000 0.2000000 0.4000000
170.0829
196.8967
231.3507
276.7807
327.3491
414.5873
0.0000000 0.2000000 -0.5000000
134.7252
146.1275
253.0285
271.9764
306.5619
441.2461
0.0000000 0.3000000 0.0000000
154.2827
160.8737
286.9287
327.1729
379.2002
429.1279
0.0000000 0.3000000 0.1000000
167.1625
172.0160
281.4078
340.7115
363.3589
431.6264
0.0000000 0.3000000 0.2000000
197.0156
206.7038
264.4321
319.3887
376.7579
428.5919
0.0000000 0.3000000 0.3000000
230.6083
237.0700
257.2515
268.1690
407.2941
412.2839
0.0000000 0.3000000 0.4000000
203.8623
216.1218
259.6239
309.6907
383.4579
426.4339
0.0000000 0.3000000 -0.5000000
172.3400
177.1920
278.9029
343.9786
359.1550
431.8778
0.0000000 0.4000000 0.0000000
181.1015
206.9324
306.1855
382.5445
401.3900
422.1816
0.0000000 0.4000000 0.1000000
192.9794
206.3561
301.0175
368.9017
397.9831
438.8381
0.0000000 0.4000000 0.2000000
219.9504
221.3016
285.1991
321.2362
422.3626
449.2097
0.0000000 0.4000000 0.3000000
253.3453
258.6201
259.6979
268.8399
442.3335
444.9497
0.0000000 0.4000000 0.4000000
226.1436
227.6650
280.7082
310.6023
427.1846
449.5471
0.0000000 0.4000000 -0.5000000
197.8200
207.2262
298.6803
360.2100
402.4507
442.0455
0.0000000 -0.5000000 0.0000000
194.6201
242.2027
317.1541
375.7335
411.1109
444.6485
0.0000000 -0.5000000 0.1000000
206.1292
234.0111
312.0886
354.1505
424.1889
454.1863
0.0000000 -0.5000000 0.2000000
231.2550
233.6972
296.6769
310.3010
446.9852
464.9232
0.0000000 -0.5000000 0.3000000
255.9291
263.8420
265.6797
271.5530
462.6899
464.3972
0.0000000 -0.5000000 0.4000000
233.7504
240.3150
292.3022
300.5635
451.0417
465.8614
0.0000000 -0.5000000 -0.5000000
210.8501
231.8657
309.8053
346.2456
428.7808
456.9498
0.1000000 0.1000000 0.0000000
78.1300
85.7890
176.3071
249.5913
280.4767
461.9189
0.1000000 0.1000000 0.1000000
104.3862
114.9679
207.5123
243.2369
272.8191
452.6320
0.1000000 0.1000000 0.2000000
142.1342
163.7738
221.6499
250.0590
283.3244
423.2102
0.1000000 0.1000000 0.3000000
180.7606
187.6379
208.6314
216.0456
358.1465
371.3591
0.1000000 0.1000000 0.4000000
150.2020
172.7359
216.1700
243.9326
299.3487
414.5397
0.1000000 0.1000000 -0.5000000
111.3875
125.4537
219.9981
240.7884
269.4203
448.3911
0.1000000 0.2000000 0.0000000
122.1935
140.2402
239.7470
292.6551
326.9083
447.2708
0.1000000 0.2000000 0.1000000
141.0034
153.4152
253.2445
295.7480
317.3586
440.9531
0.1000000 0.2000000 0.2000000
180.7738
184.5832
253.3847
289.9878
329.1099
420.9682
0.1000000 0.2000000 0.3000000
210.6610
213.2527
247.0711
252.8422
377.0698
385.9096
0.1000000 0.2000000 0.4000000
187.9999
192.8044
250.3339
282.7725
338.9221
415.0837
0.1000000 0.2000000 -0.5000000
148.2860
158.7217
256.1300
299.2180
313.1042
438.0708
0.1000000 0.3000000 0.0000000
169.4300
183.6274
284.6361
345.9453
378.2343
424.6694
0.1000000 0.3000000 0.1000000
172.1328
196.6552
288.3967
349.8605
364.0517
428.9777
0.1000000 0.3000000 0.2000000
195.1863
223.0857
282.2777
317.5853
382.0272
428.2651
0.1000000 0.3000000 0.3000000
232.1398
237.0039
273.7269
278.1531
409.5455
414.0691
0.1000000 0.3000000 0.4000000
202.4914
228.6109
279.1739
308.7541
387.9650
426.5361
0.1000000 0.3000000 -0.5000000
174.7842
201.4353
288.5811
347.2176
363.6860
429.7319
0.1000000 0.4000000 0.0000000
210.7939
213.8885
314.4454
385.2824
397.1578
418.7104
0.1000000 0.4000000 0.1000000
202.3734
227.5316
312.6533
364.9529
399.8887
435.1273
0.1000000 0.4000000 0.2000000
207.0775
251.2566
295.9630
326.2627
421.5942
446.1925
0.1000000 0.4000000 0.3000000
237.6847
245.3541
290.8748
295.9225
440.2338
442.6653
0.1000000 0.4000000 0.4000000
211.4139
255.4891
290.6208
319.3706
426.0662
446.6721
0.1000000 0.4000000 -0.5000000
201.4144
231.8867
310.9445
357.0633
403.7196
438.4594
0.2000000 0.2000000 0.0000000
152.6464
161.9799
275.2599
322.8099
364.5096
433.4650
0.2000000 0.2000000 0.1000000
160.9070
176.7181
277.4172
331.3966
351.7177
432.6023
0.2000000 0.2000000 0.2000000
191.2402
207.7487
268.1180
312.8705
365.1722
424.7563
0.2000000 0.2000000 0.3000000
226.4368
230.4782
262.0779
269.0795
398.5152
404.2684
0.2000000 0.2000000 0.4000000
198.9934
214.8579
264.6145
304.1933
372.2385
421.7013
0.2000000 0.2000000 -0.5000000
165.4055
182.1652
276.9163
334.0755
348.0448
431.8386
0.2000000 0.3000000 0.0000000
191.4035
218.9607
296.3566
375.1612
387.1178
411.9947
0.2000000 0.3000000 0.1000000
187.3677
228.3263
305.2366
358.8641
381.9533
425.3059
0.2000000 0.3000000 0.2000000
198.0473
247.3856
306.3419
317.5860
399.6302
432.1667
0.2000000 0.3000000 0.3000000
232.8585
240.3230
294.9246
297.2068
420.8271
424.1155
0.2000000 0.3000000 0.4000000
203.6459
250.1812
302.8365
311.2932
404.2528
431.7319
0.2000000 0.3000000 -0.5000000
187.3991
231.9719
307.2048
350.7770
384.3695
427.8372
0.2000000 0.4000000 0.0000000
231.4249
262.2191
326.5088
385.3642
398.6207
411.1011
0.2000000 0.4000000 0.1000000
217.3926
269.8004
335.7389
353.0722
410.4739
426.0303
0.2000000 0.4000000 0.2000000
207.7858
273.8082
316.6135
343.0881
424.0064
440.4921
0.2000000 0.4000000 0.3000000
229.7516
237.5022
326.5927
330.1592
438.0937
439.8629
0.2000000 0.4000000 0.4000000
209.5263
268.7556
315.9909
341.4433
427.2975
441.5648
0.2000000 0.4000000 -0.5000000
213.6661
272.3450
335.5867
347.0429
412.5479
430.1089
0.3000000 0.3000000 0.0000000
217.3308
219.7239
318.0170
388.7651
393.5274
421.0155
0.3000000 0.3000000 0.1000000
206.2983
234.1707
316.3164
363.5671
403.0158
435.9643
0.3000000 0.3000000 0.2000000
207.7669
256.6630
297.7181
328.3038
424.3620
447.3508
0.3000000 0.3000000 0.3000000
236.5383
244.3162
296.1067
301.0371
442.2334
444.5088
0.3000000 0.3000000 0.4000000
211.5305
259.9346
292.4240
322.3569
428.6860
447.9550
0.3000000 0.3000000 -0.5000000
204.6940
238.4518
314.4520
355.9810
406.8832
439.2907
P = 1253.7800	V = 111.4903	E = -655.24234981000000	S_el = 0.00003424643750
0.0000000 0.0000000 0.0000000
0.0000
0.0000
0.0000
243.9438
243.9438
503.4938
0.0000000 0.0000000 0.1000000
61.1314
61.1314
141.6810
235.7364
235.7364
492.3039
0.0000000 0.0000000 0.2000000
116.0397
116.0397
211.1886
211.1886
269.3765
456.0180
0.0000000 0.0000000 0.3000000
163.9893
163.9893
173.0679
173.0679
372.3611
389.9429
0.0000000 0.0000000 0.4000000
126.4990
126.4990
204.2497
204.2497
292.9664
444.9189
0.0000000 0.0000000 -0.5000000
73.0869
73.0869
169.6491
231.9737
231.9737
487.0303
0.0000000 0.1000000 0.0000000
59.1097
63.4525
137.6234
254.1325
273.9177
497.9205
0.0000000 0.1000000 0.1000000
88.9031
104.7649
184.9064
246.4445
265.8842
487.3582
0.0000000 0.1000000 0.2000000
134.2977
153.4435
223.3361
242.0715
284.8657
453.4639
0.0000000 0.1000000 0.3000000
178.7315
187.2972
197.3929
205.9085
376.5686
392.5993
0.0000000 0.1000000 0.4000000
143.7941
162.8412
216.7829
235.4551
305.4206
443.1722
0.0000000 0.1000000 -0.5000000
97.8370
115.5479
204.1088
242.9125
262.2310
482.4028
0.0000000 0.2000000 0.0000000
116.6641
119.9292
257.6910
278.2492
338.8480
481.7888
0.0000000 0.2000000 0.1000000
136.4441
144.5327
271.7650
280.4807
329.5943
474.0308
0.0000000 0.2000000 0.2000000
172.4574
197.2443
251.3000
300.8195
336.9739
449.5733
0.0000000 0.2000000 0.3000000
211.5536
219.2113
249.3812
259.3548
395.9126
406.8737
0.0000000 0.2000000 0.4000000
180.6347
208.3998
245.4999
293.4243
349.4393
442.2460
0.0000000 0.2000000 -0.5000000
142.9951
154.7361
268.4976
290.1502
325.5166
470.4185
0.0000000 0.3000000 0.0000000
163.7231
170.9531
304.5371
348.5596
403.2911
456.9491
0.0000000 0.3000000 0.1000000
177.3638
182.6157
298.6444
362.7930
386.4540
459.8886
0.0000000 0.3000000 0.2000000
209.0621
219.1202
280.6420
338.8637
401.8708
457.0327
0.0000000 0.3000000 0.3000000
244.7239
251.7024
272.5771
284.3805
434.4602
439.8675
0.0000000 0.3000000 0.4000000
216.4785
229.2588
275.4535
328.3213
409.1664
454.7422
0.0000000 0.3000000 -0.5000000
182.9679
188.1628
295.9228
365.8622
382.3324
460.2433
0.0000000 0.4000000 0.0000000
192.2474
219.5986
325.0968
407.4362
426.9623
449.5631
0.0000000 0.4000000 0.1000000
204.8182
219.3105
319.5609
391.9029
424.2029
467.4788
0.0000000 0.4000000 0.2000000
233.7083
234.9958
302.7060
340.9278
450.3849
478.8328
0.0000000 0.4000000 0.3000000
268.7898
274.5918
275.5091
285.4205
471.7273
474.5465
0.0000000 0.4000000 0.4000000
240.4188
241.8088
297.8385
329.3950
455.6517
479.2528
0.0000000 0.4000000 -0.5000000
210.0492
220.3395
317.0103
382.3901
429.1036
471.0206
0.0000000 -0.5000000 0.0000000
206.6378
256.8333
336.9031
399.3056
437.8108
473.9225
0.0000000 -0.5000000 0.1000000
218.8088
248.4278
331.4509
376.2577
451.9190
484.1460
0.0000000 -0.5000000 0.2000000
245.7622
248.0343
314.9363
329.5836
476.5168
495.7571
0.0000000 -0.5000000 0.3000000
271.8728
280.3957
281.8207
288.1853
493.4432
495.3046
0.0000000 -0.5000000 0.4000000
248.5674
255.0880
310.1708
319.0495
480.9757
496.8033
0.0000000 -0.5000000 -0.5000000
223.9027
246.2044
328.9455
367.6607
456.9691
487.1783
0.1000000 0.1000000 0.0000000
83.2261
90.9528
187.9246
265.0668
297.9526
492.4436
0.1000000 0.1000000 0.1000000
110.5942
121.4749
221.2943
258.3227
289.7337
482.6403
0.1000000 0.1000000 0.2000000
150.7234
173.1437
235.3501
265.3850
302.1365
451.4805
0.1000000 0.1000000 0.3000000
191.8747
199.3088
221.0391
229.0961
381.9588
396.3178
0.1000000 0.1000000 0.4000000
159.4920
182.8904
229.4267
258.7166
319.5473
442.0863
0.1000000 0.1000000 -0.5000000
118.1600
132.7006
234.7816
255.7589
286.0185
478.0595
0.1000000 0.2000000 0.0000000
130.0043
148.6125
255.0165
311.3546
347.3216
476.5845
0.1000000 0.2000000 0.1000000
149.4055
162.4857
269.0975
315.0548
337.0219
470.0359
0.1000000 0.2000000 0.2000000
191.6025
195.2970
268.8814
307.6354
351.1313
449.0942
0.1000000 0.2000000 0.3000000
223.4858
226.2069
261.8113
268.0063
402.3261
411.9240
0.1000000 0.2000000 0.4000000
199.4839
204.1782
265.5658
299.7664
361.8178
442.7566
0.1000000 0.2000000 -0.5000000
157.2410
168.1385
272.0647
319.0131
332.3593
466.9685
0.1000000 0.3000000 0.0000000
179.9858
194.6840
302.0875
368.5917
402.2723
452.1137
0.1000000 0.3000000 0.1000000
182.7201
208.5022
306.0437
372.1542
387.6261
456.9066
0.1000000 0.3000000 0.2000000
206.9543
236.5751
299.5848
336.8653
407.5810
456.5400
0.1000000 0.3000000 0.3000000
246.0134
251.2901
290.4202
295.1418
436.9019
441.7787
0.1000000 0.3000000 0.4000000
214.8100
242.5501
296.2337
327.2862
414.0481
454.7416
0.1000000 0.3000000 -0.5000000
185.5531
213.6779
306.2334
368.7350
387.7406
457.7946
0.1000000 0.4000000 0.0000000
223.6755
226.8660
333.7084
410.3812
422.3655
445.9180
0.1000000 0.4000000 0.1000000
214.8494
241.4547
331.8088
387.4983
426.2995
463.3851
0.1000000 0.4000000 0.2000000
220.0367
266.6189
313.9785
346.1772
449.6165
475.4448
0.1000000 0.4000000 0.3000000
251.9898
260.1808
308.8485
314.3008
469.4927
472.0900
0.1000000 0.4000000 0.4000000
224.6908
271.1447
308.2082
338.7852
454.4979
476.0444
0.1000000 0.4000000 -0.5000000
213.8824
246.1759
329.9433
378.8313
430.5131
467.0336
0.2000000 0.2000000 0.0000000
162.2603
171.7480
292.2298
343.8678
387.5444
461.6380
0.2000000 0.2000000 0.1000000
170.7534
187.3373
294.4204
352.9636
373.9610
460.9378
0.2000000 0.2000000 0.2000000
202.6919
220.2132
284.5448
331.8908
389.5858
452.9658
0.2000000 0.2000000 0.3000000
240.1297
244.4726
277.8568
285.3562
425.1610
431.3924
0.2000000 0.2000000 0.4000000
211.0780
227.8852
280.7615
322.4538
397.2829
449.7116
0.2000000 0.2000000 -0.5000000
175.5494
193.2242
293.8529
355.4483
370.3867
460.1838
0.2000000 0.3000000 0.0000000
203.1811
232.0850
314.4579
399.8267
411.8241
438.3870
0.2000000 0.3000000 0.1000000
198.9405
241.9964
323.9188
381.0378
407.3955
452.7162
0.2000000 0.3000000 0.2000000
210.2585
262.2193
325.1782
336.7281
426.3998
460.4321
0.2000000 0.3000000 0.3000000
246.6888
254.6812
313.0452
315.5453
448.9171
452.4215
0.2000000 0.3000000 0.4000000
216.2586
265.2156
321.3326
330.0215
431.4332
460.0732
0.2000000 0.3000000 -0.5000000
198.9968
245.9398
326.0600
372.1184
410.0783
455.5157
0.2000000 0.4000000 0.0000000
245.4081
278.0903
346.4148
409.5418
424.1815
438.2623
0.2000000 0.4000000 0.1000000
230.5797
286.0648
356.3133
374.4265
437.7493
453.2698
0.2000000 0.4000000 0.2000000
220.8022
289.9328
335.5625
364.3742
452.2604
468.9412
0.2000000 0.4000000 0.3000000
243.5385
251.6939
346.8485
350.7556
467.1771
469.0119
0.2000000 0.4000000 0.4000000
222.7166
284.3414
335.0664
362.6614
455.8421
470.2488
0.2000000 0.4000000 -0.5000000
226.6159
288.7807
356.1086
367.8178
440.0414
457.6733
0.3000000 0.3000000 0.0000000
230.7274
232.9025
337.4944
414.0666
418.4409
448.4333
0.3000000 0.3000000 0.1000000
218.9879
248.4763
335.6887
385.9679
429.6062
464.2817
0.3000000 0.3000000 0.2000000
220.7856
272.3211
315.7850
348.3747
452.5505
476.6494
0.3000000 0.3000000 0.3000000
250.7806
259.0682
314.4257
319.7593
471.6139
474.0399
0.3000000 0.3000000 0.4000000
224.8315
275.7814
310.0945
342.0193
457.2733
477.3859
0.3000000 0.3000000 -0.5000000
217.3249
253.1178
333.6462
377.6407
433.8592
467.9111
P = 1750.3100	V = 104.5144	E = -655.19262885000000	S_el = 0.00003163697250
0.0000000 0.0000000 0.0000000
0.0000
0.0000
0.0000
269.3033
269.3033
558.6934
0.0000000 0.0000000 0.1000000
66.8828
66.8828
157.0124
260.2205
260.2205
546.1422
0.0000000 0.0000000 0.2000000
127.5614
127.5614
233.1887
233.1887
298.5750
505.7796
0.0000000 0.0000000 0.3000000
180.8317
180.8317
191.1681
191.1681
412.6912
432.6935
0.0000000 0.0000000 0.4000000
139.5044
139.5044
225.3312
225.3312
325.4367
493.1167
0.0000000 0.0000000 -0.5000000
80.3999
80.3999
188.8725
255.9409
255.9409
540.0647
0.0000000 0.1000000 0.0000000
65.7449
69.8364
152.5986
280.3631
302.1462
552.3514
0.0000000 0.1000000 0.1000000
97.6654
114.6648
205.3482
271.8445
293.1932
540.6263
0.0000000 0.1000000 0.2000000
147.7783
168.2172
246.4090
266.7784
316.0260
503.1222
0.0000000 0.1000000 0.3000000
197.0337
206.7626
217.0303
226.7436
417.6155
435.8526
0.0000000 0.1000000 0.4000000
158.6045
178.9340
238.9988
259.2438
339.4145
491.4090
0.0000000 0.1000000 -0.5000000
107.7631
126.7450
227.2428
267.8252
289.0106
534.9591
0.0000000 0.2000000 0.0000000
129.5512
131.9249
285.6197
306.6422
373.6440
533.9863
0.0000000 0.2000000 0.1000000
150.2239
158.8878
299.1429
311.3681
363.2601
525.6347
0.0000000 0.2000000 0.2000000
189.9368
216.0841
276.9359
330.8862
374.1058
499.0205
0.0000000 0.2000000 0.3000000
233.0975
241.7577
273.5304
284.8715
439.5268
451.9981
0.0000000 0.2000000 0.4000000
199.2290
228.6624
270.3933
322.4084
388.3422
490.7510
0.0000000 0.2000000 -0.5000000
157.6369
170.1707
295.7282
322.0826
358.6174
521.6009
0.0000000 0.3000000 0.0000000
180.4856
188.8971
335.4980
386.0161
445.2733
505.7134
0.0000000 0.3000000 0.1000000
195.4225
201.4458
328.9406
401.2790
426.8729
509.4461
0.0000000 0.3000000 0.2000000
230.2782
241.0187
309.1088
372.7619
445.8905
506.9303
0.0000000 0.3000000 0.3000000
269.5160
277.3924
299.3868
312.6986
482.1036
488.2483
0.0000000 0.3000000 0.4000000
238.6744
252.3761
303.2511
360.7630
454.2317
504.4123
0.0000000 0.3000000 -0.5000000
201.7547
207.6236
325.8340
403.8188
423.0758
509.9954
0.0000000 0.4000000 0.0000000
212.0194
241.9286
358.3028
450.8422
471.6683
497.3122
0.0000000 0.4000000 0.1000000
225.7477
242.0660
352.1085
432.0413
470.0289
517.5344
0.0000000 0.4000000 0.2000000
257.8621
259.0411
333.4188
375.4348
499.3387
530.6960
0.0000000 0.4000000 0.3000000
295.9011
302.5502
303.3511
314.5388
523.1380
526.3282
0.0000000 0.4000000 0.4000000
265.4479
266.6577
327.8918
362.3577
505.3902
531.2670
0.0000000 0.4000000 -0.5000000
231.6373
243.3571
349.1789
421.1234
475.6773
521.6912
0.0000000 -0.5000000 0.0000000
227.9421
282.4384
371.5444
440.4402
484.2485
524.9885
0.0000000 -0.5000000 0.1000000
241.2030
273.7212
365.4045
414.9111
500.1780
536.4496
0.0000000 -0.5000000 0.2000000
271.3019
273.2435
346.9556
363.4574
527.9826
549.6471
0.0000000 -0.5000000 0.3000000
299.9824
309.3791
310.3418
317.3724
547.1422
549.2925
0.0000000 -0.5000000 0.4000000
274.6668
281.0427
341.5088
351.5607
533.1674
550.8866
0.0000000 -0.5000000 -0.5000000
246.9215
271.3920
362.5064
405.1390
506.0407
539.9685
0.1000000 0.1000000 0.0000000
92.4214
100.1155
208.3757
292.3160
328.5434
546.1172
0.1000000 0.1000000 0.1000000
121.5989
133.1774
245.6169
284.8939
319.3406
535.3386
0.1000000 0.1000000 0.2000000
165.8924
189.6698
259.4777
292.1925
335.3727
501.0406
0.1000000 0.1000000 0.3000000
211.4575
219.8592
242.7511
251.9169
423.8134
440.1450
0.1000000 0.1000000 0.4000000
175.8807
200.7535
252.7719
284.5695
355.1951
490.3777
0.1000000 0.1000000 -0.5000000
130.1539
145.6635
260.8472
282.1735
315.0705
530.1384
0.1000000 0.2000000 0.0000000
144.0140
163.3885
281.8828
344.2417
382.9132
528.0569
0.1000000 0.2000000 0.1000000
164.4784
178.5208
296.9658
349.0069
371.3007
521.0768
0.1000000 0.2000000 0.2000000
210.6100
214.3217
296.0902
338.3675
389.8759
498.4390
0.1000000 0.2000000 0.3000000
245.9893
248.9268
287.5766
294.4647
446.7145
457.6235
0.1000000 0.2000000 0.4000000
219.6436
224.2814
292.2930
329.3570
402.0982
491.3168
0.1000000 0.2000000 -0.5000000
173.2135
184.8251
300.0663
353.7507
365.9971
517.6811
0.1000000 0.3000000 0.0000000
198.7567
214.1743
332.7157
408.2463
444.1882
500.1973
0.1000000 0.3000000 0.1000000
201.5212
229.3518
336.9937
410.8652
429.0656
505.9132
0.1000000 0.3000000 0.2000000
227.7245
260.2215
329.8864
370.5053
452.3639
506.1973
0.1000000 0.3000000 0.3000000
270.3443
276.3217
319.6216
324.8500
484.8703
490.3780
0.1000000 0.3000000 0.4000000
236.5111
266.9661
326.0937
359.6453
459.7559
504.2747
0.1000000 0.3000000 -0.5000000
204.6578
235.2011
337.1817
406.1061
430.0087
507.0609
0.1000000 0.4000000 0.0000000
246.3580
249.7506
367.4404
454.1160
466.4205
493.4172
0.1000000 0.4000000 0.1000000
236.8152
265.9107
365.3337
426.9208
472.4848
512.8078
0.1000000 0.4000000 0.2000000
242.7804
293.4931
345.5570
381.1773
498.5728
526.7084
0.1000000 0.4000000 0.3000000
277.1601
286.2561
340.3121
346.4711
520.6602
523.5673
0.1000000 0.4000000 0.4000000
247.9876
298.5187
339.0741
372.8972
504.1708
527.5164
0.1000000 0.4000000 -0.5000000
235.8263
271.2458
363.1890
416.9548
477.3552
517.0471
0.2000000 0.2000000 0.0000000
179.3858
189.0365
322.0396
380.8098
427.6913
511.0403
0.2000000 0.2000000 0.1000000
188.2712
206.1152
324.2830
390.5817
412.9101
510.6570
0.2000000 0.2000000 0.2000000
222.9026
242.1561
313.3529
365.0040
432.4168
502.4902
0.2000000 0.2000000 0.3000000
264.1434
269.0042
305.4600
313.7862
471.9233
478.9964
0.2000000 0.2000000 0.4000000
232.3571
250.7888
309.0696
354.2558
441.2208
498.8904
0.2000000 0.2000000 -0.5000000
193.5738
212.7562
323.5911
392.5204
409.7104
509.9347
0.2000000 0.3000000 0.0000000
224.0434
255.1160
346.1647
442.7849
455.0832
484.5733
0.2000000 0.3000000 0.1000000
219.4093
265.9501
356.6041
419.6742
452.0231
500.8071
0.2000000 0.3000000 0.2000000
231.7261
288.1402
358.0786
370.3062
473.2652
510.0985
0.2000000 0.3000000 0.3000000
270.9772
279.8720
344.7230
347.5841
498.1207
502.0238
0.2000000 0.3000000 0.4000000
238.4082
291.4788
353.6520
362.8824
479.0092
509.8618
0.2000000 0.3000000 -0.5000000
219.4907
270.3974
359.0327
409.3537
455.1509
504.1188
0.2000000 0.4000000 0.0000000
270.0014
305.8583
381.1495
451.7601
468.5101
485.8901
0.2000000 0.4000000 0.1000000
253.8281
314.4702
392.2057
411.9308
485.4398
500.9781
0.2000000 0.4000000 0.2000000
243.6325
318.1759
369.0453
401.5222
501.6316
518.8721
0.2000000 0.4000000 0.3000000
267.8386
276.7443
382.2166
386.6904
518.0100
519.9836
0.2000000 0.4000000 0.4000000
245.8331
311.7513
368.6887
399.6718
505.7078
520.5740
0.2000000 0.4000000 -0.5000000
249.4513
317.4626
391.9371
404.3767
488.1339
505.9855
0.3000000 0.3000000 0.0000000
254.2694
256.1458
371.5806
458.1319
461.9695
496.3116
0.3000000 0.3000000 0.1000000
241.3212
273.5889
369.5731
425.1823
476.0791
513.8046
0.3000000 0.3000000 0.2000000
243.6303
299.6999
347.4866
383.6586
501.7826
527.9903
0.3000000 0.3000000 0.3000000
275.8535
285.0331
346.4838
352.5200
522.9804
525.6913
0.3000000 0.3000000 0.4000000
248.1672
303.4832
341.1468
376.5593
507.2038
528.9558
0.3000000 0.3000000 -0.5000000
239.5512
278.8345
367.2169
415.6228
481.0002
518.0007
P = 2243.6800	V = 99.1777	E = -655.13674489000000	S_el = 0.00002961120875
0.0000000 0.0000000 0.0000000
0.0000
0.0000
0.0000
291.2301
291.2301
606.3844
0.0000000 0.0000000 0.1000000
71.9982
71.9982
170.3355
281.4112
281.4112
592.6060
0.0000000 0.0000000 0.2000000
137.6732
137.6732
252.2549
252.2549
323.7902
548.6144
0.0000000 0.0000000 0.3000000
195.4779
195.4779
206.8809
206.8809
447.3808
469.4433
0.0000000 0.0000000 0.4000000
150.8734
150.8734
243.6135
243.6135
353.4256
534.5916
0.0000000 0.0000000 -0.5000000
86.8706
86.8706
205.5318
276.6955
276.6955
585.8142
0.0000000 0.1000000 0.0000000
71.5601
75.4646
165.5506
303.0386
326.4518
599.3550
0.0000000 0.1000000 0.1000000
105.3679
123.3604
223.1161
293.8169
316.7172
586.5556
0.0000000 0.1000000 0.2000000
159.5438
181.0366
266.3801
288.0619
343.0331
545.8260
0.0000000 0.1000000 0.3000000
212.9051
223.6213
233.9635
244.6930
452.9681
473.0645
0.0000000 0.1000000 0.4000000
171.4948
192.8628
258.2364
279.7394
368.8155
532.8851
0.0000000 0.1000000 -0.5000000
116.4709
136.5382
247.3391
289.3843
312.0840
580.2511
0.0000000 0.2000000 0.0000000
140.7045
142.5684
309.7412
331.1703
403.4411
578.9911
0.0000000 0.2000000 0.1000000
162.2552
171.5434
322.8710
337.9635
392.0917
570.0642
0.0000000 0.2000000 0.2000000
205.0973
232.4470
299.0723
356.5839
406.2113
541.5316
0.0000000 0.2000000 0.3000000
251.7055
261.2166
294.2161
306.6946
477.1347
490.8705
0.0000000 0.2000000 0.4000000
215.3261
246.1810
291.8914
347.1750
421.9613
532.4636
0.0000000 0.2000000 -0.5000000
170.3960
183.7353
319.2567
349.6300
386.9868
565.6534
0.0000000 0.3000000 0.0000000
195.1372
204.4965
362.2129
418.2421
481.1800
547.6482
0.0000000 0.3000000 0.1000000
211.1434
217.7991
355.0740
434.2058
461.5976
552.0839
0.0000000 0.3000000 0.2000000
248.6265
259.9338
333.6425
401.7017
483.7649
549.8864
0.0000000 0.3000000 0.3000000
290.8864
299.5236
322.3816
336.9469
523.1082
529.8881
0.0000000 0.3000000 0.4000000
257.8408
272.2978
327.2097
388.4756
493.0001
547.1786
0.0000000 0.3000000 -0.5000000
218.0765
224.5025
351.6337
436.1278
458.2358
552.8128
0.0000000 0.4000000 0.0000000
229.2742
261.1709
386.9145
488.0118
509.9905
538.1949
0.0000000 0.4000000 0.1000000
243.9340
261.5865
380.1429
466.4048
509.3554
560.4761
0.0000000 0.4000000 0.2000000
278.6398
279.7088
359.8604
405.1086
541.3142
575.2729
0.0000000 0.4000000 0.3000000
319.2600
326.5422
327.4004
339.6022
567.2729
570.7954
0.0000000 0.4000000 0.4000000
286.9383
288.0389
353.7696
390.7364
548.0406
575.9784
0.0000000 0.4000000 -0.5000000
250.3595
263.0842
376.8847
454.3163
515.6314
565.1867
0.0000000 -0.5000000 0.0000000
246.5148
304.3560
401.3598
475.6138
523.9047
568.7331
0.0000000 -0.5000000 0.1000000
260.6400
295.4211
394.6207
448.0473
541.4072
581.2811
0.0000000 -0.5000000 0.2000000
293.3276
294.9723
374.5105
392.6445
572.0047
595.8891
0.0000000 -0.5000000 0.3000000
324.2646
334.2195
335.1069
342.5110
593.1681
595.5840
0.0000000 -0.5000000 0.4000000
297.1544
303.4269
368.4848
379.6113
577.8292
597.2967
0.0000000 -0.5000000 -0.5000000
266.8633
293.0284
391.3838
437.3078
547.9721
585.2300
0.1000000 0.1000000 0.0000000
100.5081
108.1277
226.0688
315.8589
354.8160
592.4430
0.1000000 0.1000000 0.1000000
131.2239
143.5063
266.7013
307.8635
344.7711
580.7464
0.1000000 0.1000000 0.2000000
179.0830
204.0040
280.3338
315.2032
364.1876
543.6415
0.1000000 0.1000000 0.3000000
228.4033
237.6218
261.4073
271.5030
459.8909
477.8750
0.1000000 0.1000000 0.4000000
190.1009
216.1954
272.9541
306.7594
386.0520
531.8904
0.1000000 0.1000000 -0.5000000
140.6279
157.0480
283.4067
305.0525
340.0272
574.9896
0.1000000 0.2000000 0.0000000
156.2740
176.2247
305.1115
372.6295
413.3601
572.4133
0.1000000 0.2000000 0.1000000
177.7186
192.4748
321.0225
378.3167
400.6228
565.0261
0.1000000 0.2000000 0.2000000
226.9968
230.9123
319.5313
364.6235
423.3392
540.8957
0.1000000 0.2000000 0.3000000
265.3682
268.4790
309.6751
317.1107
484.9860
496.9979
0.1000000 0.2000000 0.4000000
237.0206
241.7192
315.3066
354.6389
436.8742
533.1099
0.1000000 0.2000000 -0.5000000
187.1660
199.3782
324.2219
383.6645
394.8463
561.3430
0.1000000 0.3000000 0.0000000
215.0626
231.0727
359.1097
442.3383
480.0651
541.5269
0.1000000 0.3000000 0.1000000
217.8523
247.3761
363.6320
443.8557
464.8300
548.1167
0.1000000 0.3000000 0.2000000
245.6789
280.5617
355.9122
399.3092
490.8860
549.0043
0.1000000 0.3000000 0.3000000
291.2742
297.8335
344.6757
350.3290
526.1467
532.2056
0.1000000 0.3000000 0.4000000
255.2351
287.9451
351.7334
387.3782
499.0639
546.9725
0.1000000 0.3000000 -0.5000000
221.2384
253.7802
363.8060
437.9762
466.4609
549.5122
0.1000000 0.4000000 0.0000000
265.9845
269.4912
396.4299
491.5335
504.1715
534.1358
0.1000000 0.4000000 0.1000000
255.7433
286.9810
394.1243
460.7595
512.1430
555.2471
0.1000000 0.4000000 0.2000000
262.2899
316.5515
372.7233
411.3893
540.5521
570.8256
0.1000000 0.4000000 0.3000000
298.8707
308.7421
367.3320
374.0943
564.5785
567.7707
0.1000000 0.4000000 0.4000000
267.9704
321.9912
365.6655
402.3336
546.7605
571.8086
0.1000000 0.4000000 -0.5000000
254.7195
292.8186
391.7364
449.7437
517.5613
560.0283
0.2000000 0.2000000 0.0000000
194.2907
204.0843
347.7554
412.6294
462.0304
553.5462
0.2000000 0.2000000 0.1000000
203.5320
222.4249
350.0237
422.7861
446.3946
553.4644
0.2000000 0.2000000 0.2000000
240.3995
261.1082
338.1410
393.2842
469.3011
545.1509
0.2000000 0.2000000 0.3000000
284.8069
290.1004
329.1440
338.1371
512.1933
519.9887
0.2000000 0.2000000 0.4000000
250.7339
270.5368
333.4204
381.4308
479.0506
541.2588
0.2000000 0.2000000 -0.5000000
209.2604
229.6921
349.2160
424.0725
443.6952
552.7829
0.2000000 0.3000000 0.0000000
242.1075
274.9792
373.4358
479.4914
492.2918
524.2166
0.2000000 0.3000000 0.1000000
237.1052
286.5679
384.6639
452.7224
490.4622
542.2336
0.2000000 0.3000000 0.2000000
250.1747
310.3691
386.2630
399.2402
513.5366
552.9592
0.2000000 0.3000000 0.3000000
291.8887
301.5436
371.8919
375.0405
540.4180
544.6829
0.2000000 0.3000000 0.4000000
257.4251
313.9894
381.3554
391.2048
519.8768
552.8140
0.2000000 0.3000000 -0.5000000
237.1906
291.4267
387.3202
441.2570
493.9507
546.0279
0.2000000 0.4000000 0.0000000
291.1656
329.7199
410.9058
487.9205
506.2200
526.9048
0.2000000 0.4000000 0.1000000
273.8840
338.8274
422.9301
444.3017
526.3805
542.0257
0.2000000 0.4000000 0.2000000
263.1906
342.4634
398.1521
433.3285
543.9773
561.9336
0.2000000 0.4000000 0.3000000
288.8238
298.4266
412.5205
417.4476
561.6142
563.7320
0.2000000 0.4000000 0.4000000
265.6179
335.4307
397.8318
431.3397
548.4594
563.9519
0.2000000 0.4000000 -0.5000000
269.1536
342.0330
422.6304
436.0126
529.4381
547.5868
0.3000000 0.3000000 0.0000000
274.5769
276.2208
400.8559
495.8112
499.2563
537.3670
0.3000000 0.3000000 0.1000000
260.5567
295.2169
398.6552
458.8853
515.9605
556.3291
0.3000000 0.3000000 0.2000000
263.2202
323.1818
374.7931
414.1256
543.9857
572.1742
0.3000000 0.3000000 0.3000000
297.4890
307.4413
374.0073
380.6414
567.0580
570.0338
0.3000000 0.3000000 0.4000000
268.1771
327.2341
367.9402
406.3587
550.0021
573.3303
0.3000000 0.3000000 -0.5000000
258.6836
300.9553
396.0290
448.3374
521.4449
561.0461
P = 2737.6200	V = 94.8736	E = -655.07726342000000	S_el = 0.00002796772000
0.0000000 0.0000000 0.0000000
0.0000
0.0000
0.0000
310.6749
310.6749
648.6650
0.0000000 0.0000000 0.1000000
76.6748
76.6748
182.1780
300.2200
300.2200
633.7600
0.0000000 0.0000000 0.2000000
146.7804
146.7804
269.1951
269.1951
346.1102
586.4703
0.0000000 0.0000000 0.3000000
208.5348
208.5348
220.8634
220.8634
478.0110
501.8753
0.0000000 0.0000000 0.4000000
161.0699
161.0699
259.8674
259.8674
378.1622
571.2376
0.0000000 0.0000000 -0.5000000
92.7526
92.7526
220.3033
295.1265
295.1265
626.3219
0.0000000 0.1000000 0.0000000
76.7490
80.5387
177.0501
323.1445
347.9401
641.0102
0.0000000 0.1000000 0.1000000
112.3146
131.1708
238.9381
313.3121
337.5238
627.2051
0.0000000 0.1000000 0.2000000
170.0801
192.4599
284.1081
306.8885
367.0176
583.5332
0.0000000 0.1000000 0.3000000
227.0212
238.5955
248.9613
260.5741
484.2168
505.9253
0.0000000 0.1000000 0.4000000
183.0051
205.2446
275.3207
297.8733
394.8783
569.5060
0.0000000 0.1000000 -0.5000000
124.3086
145.3100
265.2171
308.5202
332.4975
620.3202
0.0000000 0.2000000 0.0000000
150.5761
152.1982
331.1341
352.9087
429.6799
618.8263
0.0000000 0.2000000 0.1000000
173.0239
182.9165
343.9959
361.4484
417.4830
609.3398
0.0000000 0.2000000 0.2000000
218.5878
247.0124
318.6871
379.1798
434.6904
579.0591
0.0000000 0.2000000 0.3000000
268.1997
278.4517
312.4373
325.8912
510.4140
525.2387
0.0000000 0.2000000 0.4000000
229.6241
261.7187
310.9439
368.9504
451.7646
569.2954
0.0000000 0.2000000 -0.5000000
181.7960
195.9006
340.1160
374.0283
411.9881
604.5850
0.0000000 0.3000000 0.0000000
208.2580
218.3451
385.8701
446.7375
512.7760
584.6874
0.0000000 0.3000000 0.1000000
225.1723
232.3159
378.2120
463.1896
492.2573
589.7592
0.0000000 0.3000000 0.2000000
264.9081
276.6765
355.3501
427.1235
517.2397
587.8607
0.0000000 0.3000000 0.3000000
309.7981
319.0979
342.6451
358.2866
559.3526
566.6922
0.0000000 0.3000000 0.4000000
274.8249
289.9010
348.4108
412.8325
527.2577
584.9898
0.0000000 0.3000000 -0.5000000
232.6155
239.4731
374.4763
464.4585
489.3809
590.6551
0.0000000 0.4000000 0.0000000
244.7028
278.1539
412.2250
520.7596
543.7478
574.2062
0.0000000 0.4000000 0.1000000
260.1363
278.7484
404.9364
496.6572
544.0553
598.3492
0.0000000 0.4000000 0.2000000
296.9812
297.9317
383.2378
431.3214
578.3201
614.6461
0.0000000 0.4000000 0.3000000
339.9257
347.6902
348.7085
361.7409
606.2168
610.0415
0.0000000 0.4000000 0.4000000
305.8768
306.9117
376.6529
415.8296
585.6404
615.4731
0.0000000 0.4000000 -0.5000000
267.0108
280.4140
401.3873
483.5638
550.8729
603.5654
0.0000000 -0.5000000 0.0000000
263.1059
323.6132
427.7126
506.5290
558.7702
607.2834
0.0000000 -0.5000000 0.1000000
277.9407
314.5159
420.4395
477.2366
577.6629
620.8021
0.0000000 -0.5000000 0.2000000
312.8043
314.1867
398.8650
418.4569
610.7462
636.6851
0.0000000 -0.5000000 0.3000000
345.7652
356.0754
357.1559
364.7451
633.7354
636.3973
0.0000000 -0.5000000 0.4000000
317.0084
323.2456
392.3345
404.4457
617.1445
638.2419
0.0000000 -0.5000000 -0.5000000
284.5850
312.0855
416.9039
465.6760
584.8476
625.1370
0.1000000 0.1000000 0.0000000
107.7407
115.3097
241.7809
336.7256
377.9999
633.4814
0.1000000 0.1000000 0.1000000
139.8588
152.8048
285.4461
328.2328
367.2163
620.9124
0.1000000 0.1000000 0.2000000
190.8532
216.7618
298.8291
335.5033
389.7922
581.2434
0.1000000 0.1000000 0.3000000
243.4481
253.3738
277.8845
288.7816
491.8023
511.2112
0.1000000 0.1000000 0.4000000
202.7617
229.8996
290.8552
326.3364
413.4315
568.5343
0.1000000 0.1000000 -0.5000000
150.0108
167.2625
303.4318
325.3727
362.0578
614.6471
0.1000000 0.2000000 0.0000000
167.2057
187.6683
325.7285
397.7774
440.1507
611.6584
0.1000000 0.2000000 0.1000000
189.5812
204.9306
342.3407
404.2861
426.4237
603.8813
0.1000000 0.2000000 0.2000000
241.5066
245.7242
340.2647
387.7039
452.9991
578.4011
0.1000000 0.2000000 0.3000000
282.5051
285.7588
329.1578
337.0425
518.8517
531.8170
0.1000000 0.2000000 0.4000000
252.4025
257.2208
335.6548
376.8657
467.6829
570.0378
0.1000000 0.2000000 -0.5000000
199.6177
212.3885
345.6136
410.1157
420.2873
599.9398
0.1000000 0.3000000 0.0000000
229.5336
246.1095
382.4693
472.4580
511.6549
578.0174
0.1000000 0.3000000 0.1000000
232.3565
263.3689
387.1784
472.8105
496.5158
585.4392
0.1000000 0.3000000 0.2000000
261.5806
298.5323
378.8771
424.6740
524.9272
586.8918
0.1000000 0.3000000 0.3000000
309.7621
316.8214
366.7636
372.7845
562.6264
569.1765
0.1000000 0.3000000 0.4000000
271.7959
306.4616
374.3539
411.8193
533.7895
584.7614
0.1000000 0.3000000 -0.5000000
235.9561
270.2434
387.3303
465.9693
498.7311
587.0711
0.1000000 0.4000000 0.0000000
283.4139
286.9355
422.0278
524.4749
537.4164
570.0370
0.1000000 0.4000000 0.1000000
272.4616
305.6142
419.5307
490.6173
547.1513
592.7084
0.1000000 0.4000000 0.2000000
279.4506
336.8807
396.7296
438.1646
577.5622
609.8359
0.1000000 0.4000000 0.3000000
318.0791
328.6362
391.1720
398.4632
603.3252
606.7822
0.1000000 0.4000000 0.4000000
285.5481
342.6743
389.1912
428.4155
584.3034
610.9690
0.1000000 0.4000000 -0.5000000
271.3919
311.8781
416.9263
478.7243
553.0400
597.9913
0.2000000 0.2000000 0.0000000
207.5384
217.5111
370.5341
440.7799
492.2474
591.1060
0.2000000 0.2000000 0.1000000
217.1230
236.9451
372.8028
451.1445
475.9759
591.3100
0.2000000 0.2000000 0.2000000
255.9275
277.9006
360.0451
418.1365
501.9221
582.8797
0.2000000 0.2000000 0.3000000
303.0674
308.7330
350.0249
359.5760
547.8019
556.2319
0.2000000 0.2000000 0.4000000
267.0121
288.0084
354.9339
405.3235
512.4986
578.7331
0.2000000 0.2000000 -0.5000000
223.2225
244.7470
371.8861
451.7342
473.8354
590.6737
0.2000000 0.3000000 0.0000000
258.1075
292.5792
397.5386
511.7622
525.1869
559.1777
0.2000000 0.3000000 0.1000000
252.7605
304.8041
409.4194
481.8093
524.4710
578.8854
0.2000000 0.3000000 0.2000000
266.4249
329.9668
411.0825
424.8530
549.0962
590.9359
0.2000000 0.3000000 0.3000000
310.3662
320.6842
395.8419
399.2272
577.7740
582.3714
0.2000000 0.3000000 0.4000000
274.1660
333.8254
405.7650
416.2799
555.9499
590.8607
0.2000000 0.3000000 -0.5000000
252.8372
310.0091
412.2609
469.3768
528.2625
583.1364
0.2000000 0.4000000 0.0000000
309.8379
350.7987
437.1263
519.7619
539.2621
563.1891
0.2000000 0.4000000 0.1000000
291.6110
360.3059
449.9792
472.9993
562.5122
578.3225
0.2000000 0.4000000 0.2000000
280.3699
363.9242
424.1059
461.3322
581.3183
600.0832
0.2000000 0.4000000 0.3000000
307.4009
317.6619
439.2186
444.5195
600.0653
602.3285
0.2000000 0.4000000 0.4000000
282.9829
356.4313
423.7567
459.2062
586.1434
602.3620
0.2000000 0.4000000 -0.5000000
286.5691
363.6815
449.6674
464.1206
565.9028
584.3976
0.3000000 0.3000000 0.0000000
292.5595
293.9879
426.6943
528.9691
532.0824
573.5734
0.3000000 0.3000000 0.1000000
277.5396
314.3405
424.3078
488.6536
551.1501
593.8664
0.3000000 0.3000000 0.2000000
280.4460
343.8792
398.9487
441.1344
581.1850
611.2449
0.3000000 0.3000000 0.3000000
316.6355
327.2776
398.2883
405.4447
605.9379
609.1619
0.3000000 0.3000000 0.4000000
285.7725
348.1622
391.6747
432.7579
587.7208
612.5637
0.3000000 0.3000000 -0.5000000
275.5643
320.4955
421.4439
477.2857
557.1224
599.0666
P = 3230.1000	V = 91.2893	E = -655.01567409000000	S_el = 0.00002659982375
0.0000000 0.0000000 0.0000000
0.0000
0.0000
0.0000
328.1571
328.1571
686.6755
0.0000000 0.0000000 0.1000000
80.9987
80.9987
192.8365
317.1436
317.1436
670.7284
0.0000000 0.0000000 0.2000000
155.0851
155.0851
284.4497
284.4497
366.1394
620.4126
0.0000000 0.0000000 0.3000000
220.3278
220.3278
233.4716
233.4716
505.4511
530.9162
0.0000000 0.0000000 0.4000000
170.3321
170.3321
274.5119
274.5119
400.3309
604.0899
0.0000000 0.0000000 -0.5000000
98.1626
98.1626
233.5699
311.7176
311.7176
662.7003
0.0000000 0.1000000 0.0000000
81.4276
85.1639
187.4036
341.2192
367.2140
678.4470
0.0000000 0.1000000 0.1000000
118.6565
138.2663
253.2108
330.8480
356.1941
663.6974
0.0000000 0.1000000 0.2000000
179.6387
202.7803
300.0606
323.7837
388.6017
617.3170
0.0000000 0.1000000 0.3000000
239.7459
252.0774
262.4375
274.8301
512.2354
535.3651
0.0000000 0.1000000 0.4000000
193.4196
216.4067
290.7000
314.1510
418.2964
602.3154
0.0000000 0.1000000 -0.5000000
131.4512
153.2634
281.3278
325.7388
350.8198
656.2795
0.0000000 0.2000000 0.0000000
159.4257
160.9951
350.3781
372.4446
453.1432
654.5924
0.0000000 0.2000000 0.1000000
182.7852
193.2415
363.0673
382.4805
440.1912
644.5643
0.0000000 0.2000000 0.2000000
230.7556
260.1489
336.3127
399.3623
460.3039
612.6741
0.0000000 0.2000000 0.3000000
283.0263
293.9336
328.7361
343.0421
540.2827
556.0613
0.0000000 0.2000000 0.4000000
242.4995
275.6911
328.0674
388.3998
478.5533
602.2941
0.0000000 0.2000000 -0.5000000
192.1139
206.9292
358.8679
395.9472
434.3604
639.4927
0.0000000 0.3000000 0.0000000
220.1542
230.7878
407.1173
472.3095
541.0173
617.8852
0.0000000 0.3000000 0.1000000
237.8545
245.3628
398.9905
489.1041
519.7344
623.5384
0.0000000 0.3000000 0.2000000
279.5567
291.6989
374.8343
449.8114
547.2623
621.9208
0.0000000 0.3000000 0.3000000
326.7752
336.6609
360.7711
377.3546
591.8589
599.6984
0.0000000 0.3000000 0.4000000
290.0875
305.6740
367.4427
434.5803
557.9755
618.9073
0.0000000 0.3000000 -0.5000000
245.7384
252.9195
394.9901
489.7127
517.3627
624.5898
0.0000000 0.4000000 0.0000000
258.6727
293.3485
434.9388
550.0633
573.9360
606.4231
0.0000000 0.4000000 0.1000000
274.7623
294.0526
427.1822
523.7037
575.1401
632.2619
0.0000000 0.4000000 0.2000000
313.4061
314.2308
404.2081
454.8194
611.4453
649.9433
0.0000000 0.4000000 0.3000000
358.4737
366.6103
367.8514
381.5779
641.1000
645.2018
0.0000000 0.4000000 0.4000000
322.8115
323.8092
397.1837
438.3422
619.2951
650.8810
0.0000000 0.4000000 -0.5000000
282.0205
295.8575
423.3721
509.7317
582.4329
637.9424
0.0000000 -0.5000000 0.0000000
278.1160
340.7863
451.3457
534.1226
589.9178
641.7862
0.0000000 -0.5000000 0.1000000
293.5467
331.5628
443.5910
503.3393
610.0554
656.1800
0.0000000 -0.5000000 0.2000000
330.2679
331.4188
420.7068
441.6127
645.3779
673.2257
0.0000000 -0.5000000 0.3000000
365.0643
375.5920
377.0489
384.6967
670.0427
672.9334
0.0000000 -0.5000000 0.4000000
334.7804
341.0446
413.7294
426.7443
652.2957
674.9164
0.0000000 -0.5000000 -0.5000000
300.5493
329.1113
439.7885
491.0685
617.7940
660.8648
0.1000000 0.1000000 0.0000000
114.2729
121.8283
255.9294
355.4787
398.7648
670.3522
0.1000000 0.1000000 0.1000000
147.7039
161.2618
302.3371
346.5477
387.3237
656.9544
0.1000000 0.1000000 0.2000000
201.4969
228.2717
315.4593
353.6827
412.8487
614.9212
0.1000000 0.1000000 0.3000000
256.9900
267.5378
292.6560
304.2559
520.4313
541.0904
0.1000000 0.1000000 0.4000000
214.1878
242.2335
306.9544
343.8702
438.0549
601.3567
0.1000000 0.1000000 -0.5000000
158.5246
176.5299
321.4514
343.6659
381.7971
650.2207
0.1000000 0.2000000 0.0000000
177.0584
198.0088
344.2855
420.3711
464.0936
646.8826
0.1000000 0.2000000 0.1000000
200.3239
216.1965
361.5012
427.6223
449.4827
638.7320
0.1000000 0.2000000 0.2000000
254.5408
259.1133
358.8685
408.3147
479.6588
612.0159
0.1000000 0.2000000 0.3000000
297.8800
301.2541
346.5960
354.8581
549.2470
563.0501
0.1000000 0.2000000 0.4000000
266.2157
271.1845
353.9084
396.7173
495.3619
603.1417
0.1000000 0.2000000 -0.5000000
210.8605
224.1688
364.8286
433.8454
443.0670
634.5555
0.1000000 0.3000000 0.0000000
242.5336
259.6741
403.4437
499.4656
539.9054
610.7129
0.1000000 0.3000000 0.1000000
245.3991
277.7586
408.2968
498.6398
524.9883
618.9263
0.1000000 0.3000000 0.2000000
275.8550
314.6435
399.4441
447.3578
555.4536
620.9084
0.1000000 0.3000000 0.3000000
326.3324
333.8300
386.5304
392.8752
595.3402
602.3334
0.1000000 0.3000000 0.4000000
286.6466
323.0476
394.6100
433.6914
564.9208
618.6884
0.1000000 0.3000000 -0.5000000
249.1855
285.0393
408.4215
490.9595
527.7081
620.7827
0.1000000 0.4000000 0.0000000
299.1084
302.5614
444.9683
553.9335
567.1394
602.1799
0.1000000 0.4000000 0.1000000
287.4343
322.3291
442.2874
517.3625
578.5233
626.2761
0.1000000 0.4000000 0.2000000
294.7637
355.0741
418.2565
462.2331
610.6916
644.8405
0.1000000 0.4000000 0.3000000
335.3130
346.4866
412.5214
420.2833
638.0274
641.7313
0.1000000 0.4000000 0.4000000
301.2346
361.1758
410.3073
451.8566
617.9045
646.1046
0.1000000 0.4000000 -0.5000000
286.3107
328.9626
439.4882
504.7208
584.8234
632.0254
0.2000000 0.2000000 0.0000000
219.4541
229.6479
391.0013
466.0480
519.2555
624.7826
0.2000000 0.2000000 0.1000000
229.3743
250.0430
393.2517
476.5059
502.4993
625.2565
0.2000000 0.2000000 0.2000000
269.8950
292.9879
379.6844
440.3240
531.1938
616.7298
0.2000000 0.2000000 0.3000000
319.4409
325.4321
368.7123
378.7408
579.7465
588.7418
0.2000000 0.2000000 0.4000000
281.6324
303.6860
374.2205
426.6636
542.5039
612.3582
0.2000000 0.2000000 -0.5000000
235.8039
258.3095
392.2320
476.3868
500.9412
624.6671
0.2000000 0.3000000 0.0000000
272.4622
308.4008
419.1579
540.5832
554.7033
590.4729
0.2000000 0.3000000 0.1000000
266.7929
321.1727
431.5889
507.8139
555.0004
611.7861
0.2000000 0.3000000 0.2000000
280.9419
347.5088
433.2744
447.8576
580.9652
625.0673
0.2000000 0.3000000 0.3000000
326.9283
337.8359
417.2756
420.8600
611.2565
616.1612
0.2000000 0.3000000 0.4000000
289.1151
351.5725
427.6013
438.8038
588.2684
625.0464
0.2000000 0.3000000 -0.5000000
266.8530
326.6747
434.5840
494.5475
559.0521
616.4688
0.2000000 0.4000000 0.0000000
326.5447
369.7000
460.5900
548.2321
568.6946
595.7603
0.2000000 0.4000000 0.1000000
307.4948
379.5373
474.1638
498.8071
594.8842
610.8964
0.2000000 0.4000000 0.2000000
295.6794
383.1696
447.5570
486.3702
614.7497
634.3724
0.2000000 0.4000000 0.3000000
324.0729
334.9573
463.1026
468.7184
634.4892
636.8963
0.2000000 0.4000000 0.4000000
298.4482
375.3200
447.1367
484.1099
619.8698
636.8695
0.2000000 0.4000000 -0.5000000
302.1738
383.0519
473.8514
489.4453
598.5815
617.4506
0.3000000 0.3000000 0.0000000
308.7112
309.9274
449.8422
558.6113
561.4236
605.9957
0.3000000 0.3000000 0.1000000
292.7440
331.4948
447.2773
515.3404
582.6738
627.5037
0.3000000 0.3000000 0.2000000
295.8126
362.3991
420.6284
465.4188
614.4779
646.3057
0.3000000 0.3000000 0.3000000
333.8164
345.0834
420.0307
427.6507
640.7544
644.2111
0.3000000 0.3000000 0.4000000
301.4696
366.8836
413.0005
456.4812
621.4740
647.7656
0.3000000 0.3000000 -0.5000000
290.6676
338.0097
444.2011
503.2775
589.0757
633.1534
P = 5211.5800	V = 81.0010	E = -654.75721832000000	S_el = 0.00002272608125
0.0000000 0.0000000 0.0000000
0.0000
0.0000
0.0000
385.4675
385.4675
811.3015
0.0000000 0.0000000 0.1000000
95.9504
95.9504
227.7915
372.7021
372.7021
791.7662
0.0000000 0.0000000 0.2000000
183.0593
183.0593
334.5979
334.5979
431.5357
731.1680
0.0000000 0.0000000 0.3000000
259.3188
259.3188
275.0250
275.0250
594.8351
625.4331
0.0000000 0.0000000 0.4000000
201.3009
201.3009
322.7033
322.7033
472.5414
711.2642
0.0000000 0.0000000 -0.5000000
116.6886
116.6886
276.9083
366.2302
366.2302
781.7540
0.0000000 0.1000000 0.0000000
96.7827
100.7010
221.4545
400.4620
430.1546
801.1293
0.0000000 0.1000000 0.1000000
140.0609
161.9527
300.2691
388.3885
417.2133
783.0430
0.0000000 0.1000000 0.2000000
211.5231
236.9548
352.4417
379.0144
459.4471
727.4040
0.0000000 0.1000000 0.3000000
281.6707
296.3922
306.6059
321.4629
603.6424
631.2657
0.0000000 0.1000000 0.4000000
227.9842
253.2177
341.2363
367.3901
494.9451
709.2248
0.0000000 0.1000000 -0.5000000
155.4792
179.7371
334.3278
382.2756
410.7328
773.8154
0.0000000 0.2000000 0.0000000
188.2232
190.6205
413.5748
436.4440
529.3868
771.6026
0.0000000 0.2000000 0.1000000
215.2789
227.6000
426.1435
450.9061
513.9994
759.5670
0.0000000 0.2000000 0.2000000
270.8975
303.4539
394.0527
464.8180
544.3408
722.1630
0.0000000 0.2000000 0.3000000
331.6318
344.6190
381.7303
398.6854
637.9075
656.6625
0.0000000 0.2000000 0.4000000
284.8479
321.5195
384.1824
451.4829
566.3424
709.8179
0.0000000 0.2000000 -0.5000000
226.3647
243.5524
420.3432
467.7401
507.1541
753.4126
0.0000000 0.3000000 0.0000000
259.7600
271.4193
476.6569
555.9497
632.7372
726.1628
0.0000000 0.3000000 0.1000000
279.8526
288.0143
466.9854
573.3199
609.3697
733.7767
0.0000000 0.3000000 0.2000000
327.6562
340.7277
438.5424
523.2820
645.3152
733.1485
0.0000000 0.3000000 0.3000000
382.2999
394.0489
419.6763
439.2030
698.0072
707.4619
0.0000000 0.3000000 0.4000000
340.0929
357.0362
429.6880
505.0690
658.2513
729.6914
0.0000000 0.3000000 -0.5000000
289.0742
296.8378
462.1253
571.3679
609.0146
735.3679
0.0000000 0.4000000 0.0000000
305.0660
342.6490
509.1801
645.4428
671.9993
711.2342
0.0000000 0.4000000 0.1000000
323.0729
343.4100
499.8727
611.5539
676.4895
742.7317
0.0000000 0.4000000 0.2000000
366.8575
367.1364
472.7062
531.4901
719.2863
765.1530
0.0000000 0.4000000 0.3000000
419.1202
428.1055
430.5178
446.2081
754.7896
759.8283
0.0000000 0.4000000 0.4000000
377.7700
378.7663
464.2718
511.9055
728.8425
766.4598
0.0000000 0.4000000 -0.5000000
331.4699
345.6024
495.2142
594.8463
685.2698
749.9871
0.0000000 -0.5000000 0.0000000
327.8865
396.2271
528.5030
623.4394
691.0198
754.1227
0.0000000 -0.5000000 0.1000000
345.0283
386.6881
519.1623
588.1255
715.2005
771.3860
0.0000000 -0.5000000 0.2000000
387.2093
387.6495
492.0263
517.2327
757.8749
792.3281
0.0000000 -0.5000000 0.3000000
428.1093
438.7710
442.6892
449.9093
788.2206
791.9022
0.0000000 -0.5000000 0.4000000
392.5164
399.3058
483.6267
499.6813
766.5117
794.4545
0.0000000 -0.5000000 -0.5000000
353.0864
384.2373
514.4973
573.6911
724.7300
777.2288
0.1000000 0.1000000 0.0000000
135.7659
143.5802
302.4734
416.9159
466.4153
791.1144
0.1000000 0.1000000 0.1000000
173.9404
189.5117
357.9474
406.6038
452.8602
774.7340
0.1000000 0.1000000 0.2000000
236.7884
266.2657
369.9961
412.9045
488.6290
724.5940
0.1000000 0.1000000 0.3000000
301.4905
313.9914
340.8777
354.6734
613.9253
638.5003
0.1000000 0.1000000 0.4000000
251.9282
282.7722
359.7725
401.0045
518.7951
708.2603
0.1000000 0.1000000 -0.5000000
186.9316
207.3718
380.6212
403.7786
446.1580
766.4008
0.1000000 0.2000000 0.0000000
209.3843
232.2463
405.2840
494.3647
541.8212
762.0530
0.1000000 0.2000000 0.1000000
235.9156
253.5560
424.3116
504.0799
524.3483
752.5355
0.1000000 0.2000000 0.2000000
297.2367
303.4140
419.6596
475.1372
567.0437
721.6210
0.1000000 0.2000000 0.3000000
348.1176
351.8364
403.3490
412.7002
648.6001
665.0328
0.1000000 0.2000000 0.4000000
311.4318
317.1072
413.5345
461.1000
586.0006
711.1211
0.1000000 0.2000000 -0.5000000
247.9330
263.3006
427.7446
511.3664
517.2733
747.5703
0.1000000 0.3000000 0.0000000
284.9840
304.4466
472.0858
587.6549
631.7413
717.2925
0.1000000 0.3000000 0.1000000
288.0904
325.0209
477.2610
582.2578
618.2822
728.3560
0.1000000 0.3000000 0.2000000
322.4793
367.2192
466.4339
521.0865
655.1281
732.1997
0.1000000 0.3000000 0.3000000
380.3678
389.2405
450.8283
458.1972
702.1478
710.5976
0.1000000 0.3000000 0.4000000
335.0711
377.0851
460.5752
504.8677
666.5119
729.6783
0.1000000 0.3000000 -0.5000000
292.4630
333.5333
477.2520
571.9840
622.5235
731.0170
0.1000000 0.4000000 0.0000000
350.7322
353.3860
519.7898
649.7101
663.6532
706.8875
0.1000000 0.4000000 0.1000000
336.1323
376.9135
516.4381
604.5388
680.8701
735.7634
0.1000000 0.4000000 0.2000000
344.2305
414.2565
488.5376
541.1583
718.5480
759.2904
0.1000000 0.4000000 0.3000000
391.5874
404.7900
482.0534
491.3298
751.1009
755.6628
0.1000000 0.4000000 0.4000000
351.9186
421.3104
479.3630
528.7008
727.2613
760.9577
0.1000000 0.4000000 -0.5000000
334.7514
384.6835
513.0002
589.6741
688.4491
743.1259
0.2000000 0.2000000 0.0000000
258.4464
269.8347
458.0662
548.6972
606.9649
734.6918
0.2000000 0.2000000 0.1000000
269.6599
293.2376
460.1322
558.9483
589.0979
736.1211
0.2000000 0.2000000 0.2000000
315.7118
342.3893
443.7782
512.2248
626.8740
727.3219
0.2000000 0.2000000 0.3000000
372.8836
379.8892
429.5030
440.9608
684.1002
694.9140
0.2000000 0.2000000 0.4000000
329.4695
354.9018
437.1507
495.8753
640.5241
722.2346
0.2000000 0.2000000 -0.5000000
277.1566
302.9302
458.7453
556.0612
589.8783
735.7204
0.2000000 0.3000000 0.0000000
319.2525
360.3085
489.7946
634.0411
651.2231
692.3143
0.2000000 0.3000000 0.1000000
312.4606
374.7258
503.8052
592.3143
654.8804
719.4083
0.2000000 0.3000000 0.2000000
327.9275
404.6108
505.3573
523.2007
684.9219
736.9542
0.2000000 0.3000000 0.3000000
380.9262
393.7377
487.0102
491.1665
720.4854
726.4442
0.2000000 0.3000000 0.4000000
337.4703
409.2920
498.5949
512.5830
693.6239
737.0590
0.2000000 0.3000000 -0.5000000
312.4167
381.1154
507.2254
576.5189
659.7157
725.6276
0.2000000 0.4000000 0.0000000
380.7894
431.4355
536.9538
640.7123
663.7174
702.3216
0.2000000 0.4000000 0.1000000
359.1922
442.1882
552.7372
583.5274
700.4495
717.4423
0.2000000 0.4000000 0.2000000
345.0039
446.0211
525.1767
567.7080
723.6235
746.8259
0.2000000 0.4000000 0.3000000
378.5204
391.6417
540.7728
547.2944
746.5793
749.5351
0.2000000 0.4000000 0.4000000
348.2187
437.3256
524.2644
564.9436
729.6307
749.9427
0.2000000 0.4000000 -0.5000000
352.9604
446.0764
552.4769
572.8581
705.1931
725.6645
0.3000000 0.3000000 0.0000000
361.5883
361.9351
525.2972
654.9303
656.6537
711.6480
0.3000000 0.3000000 0.1000000
342.1650
387.5180
522.0812
602.4491
685.4566
737.2294
0.3000000 0.3000000 0.2000000
345.4219
422.6305
491.5178
545.0868
722.8370
760.9537
0.3000000 0.3000000 0.3000000
389.9278
403.2796
490.8352
499.9388
754.1737
758.4476
0.3000000 0.3000000 0.4000000
352.1545
427.7411
482.8700
534.2347
731.2967
762.8430
0.3000000 0.3000000 -0.5000000
339.6958
395.1310
518.3191
588.3531
693.2108
744.4374
weight
   0.0000000   0.0000000   0.0000000   0.0020000
   0.0000000   0.0000000   0.1000000   0.0040000
   0.0000000   0.0000000   0.2000000   0.0040000
   0.0000000   0.0000000   0.3000000   0.0040000
   0.0000000   0.0000000   0.4000000   0.0040000
   0.0000000   0.0000000  -0.5000000   0.0020000
   0.0000000   0.1000000   0.0000000   0.0120000
   0.0000000   0.1000000   0.1000000   0.0240000
   0.0000000   0.1000000   0.2000000   0.0240000
   0.0000000   0.1000000   0.3000000   0.0240000
   0.0000000   0.1000000   0.4000000   0.0240000
   0.0000000   0.1000000  -0.5000000   0.0120000
   0.0000000   0.2000000   0.0000000   0.0120000
   0.0000000   0.2000000   0.1000000   0.0240000
   0.0000000   0.2000000   0.2000000   0.0240000
   0.0000000   0.2000000   0.3000000   0.0240000
   0.0000000   0.2000000   0.4000000   0.0240000
   0.0000000   0.2000000  -0.5000000   0.0120000
   0.0000000   0.3000000   0.0000000   0.0120000
   0.0000000   0.3000000   0.1000000   0.0240000
   0.0000000   0.3000000   0.2000000   0.0240000
   0.0000000   0.3000000   0.3000000   0.0240000
   0.0000000   0.3000000   0.4000000   0.0240000
   0.0000000   0.3000000  -0.5000000   0.0120000
   0.0000000   0.4000000   0.0000000   0.0120000
   0.0000000   0.4000000   0.1000000   0.0240000
   0.0000000   0.4000000   0.2000000   0.0240000
   0.0000000   0.4000000   0.3000000   0.0240000
   0.0000000   0.4000000   0.4000000   0.0240000
   0.0000000   0.4000000  -0.5000000   0.0120000
   0.0000000  -0.5000000   0.0000000   0.0060000
   0.0000000  -0.5000000   0.1000000   0.0120000
   0.0000000  -0.5000000   0.2000000   0.0120000
   0.0000000  -0.5000000   0.3000000   0.0120000
   0.0000000  -0.5000000   0.4000000   0.0120000
   0.0000000  -0.5000000  -0.5000000   0.0060000
   0.1000000   0.1000000   0.0000000   0.0120000
   0.1000000   0.1000000   0.1000000   0.0240000
   0.1000000   0.1000000   0.2000000   0.0240000
   0.1000000   0.1000000   0.3000000   0.0240000
   0.1000000   0.1000000   0.4000000   0.0240000
   0.1000000   0.1000000  -0.5000000   0.0120000
   0.1000000   0.2000000   0.0000000   0.0240000
   0.1000000   0.2000000   0.1000000   0.0480000
   0.1000000   0.2000000   0.2000000   0.0480000
   0.1000000   0.2000000   0.3000000   0.0480000
   0.1000000   0.2000000   0.4000000   0.0480000
   0.1000000   0.2000000  -0.5000000   0.0240000
   0.1000000   0.3000000   0.0000000   0.0240000
   0.1000000   0.3000000   0.1000000   0.0480000
   0.1000000   0.3000000   0.2000000   0.0480000
   0.1000000   0.3000000   0.3000000   0.0480000
   0.1000000   0.3000000   0.4000000   0.0480000
   0.1000000   0.3000000  -0.5000000   0.0240000
   0.1000000   0.4000000   0.0000000   0.0240000
   0.1000000   0.4000000   0.1000000   0.0480000
   0.1000000   0.4000000   0.2000000   0.0480000
   0.1000000   0.4000000   0.3000000   0.0480000
   0.1000000   0.4000000   0.4000000   0.0480000
   0.1000000   0.4000000  -0.5000000   0.0240000
   0.2000000   0.2000000   0.0000000   0.0120000
   0.2000000   0.2000000   0.1000000   0.0240000
   0.2000000   0.2000000   0.2000000   0.0240000
   0.2000000   0.2000000   0.3000000   0.0240000
   0.2000000   0.2000000   0.4000000   0.0240000
   0.2000000   0.2000000  -0.5000000   0.0120000
   0.2000000   0.3000000   0.0000000   0.0240000
   0.2000000   0.3000000   0.1000000   0.0480000
   0.2000000   0.3000000   0.2000000   0.0480000
   0.2000000   0.3000000   0.3000000   0.0480000
   0.2000000   0.3000000   0.4000000   0.0480000
   0.2000000   0.3000000  -0.5000000   0.0240000
   0.2000000   0.4000000   0.0000000   0.0120000
   0.2000000   0.4000000   0.1000000   0.0240000
   0.2000000   0.4000000   0.2000000   0.0240000
   0.2000000   0.4000000   0.3000000   0.0240000
   0.2000000   0.4000000   0.4000000   0.0240000
   0.2000000   0.4000000  -0.5000000   0.0120000
   0.3000000   0.3000000   0.0000000   0.0120000
   0.3000000   0.3000000   0.1000000   0.0240000
   0.3000000   0.3000000   0.2000000   0.0240000
   0.3000000   0.3000000   0.3000000   0.0240000
   0.3000000   0.3000000   0.4000000   0.0240000
   0.3000000   0.3000000  -0.5000000   0.0120000