Number of volumes (nv), q-vectors (nq), normal mode (np), formula units(nm)
10 84 6 1

P	=	-0.7	V	=	155.2198	E	=	-655.65169506
0.0 0.0 0.0
-0.0
-0.0
0.0
141.3858
141.3858
275.9906
0.0 0.0 0.1
33.2118
33.2118
82.992
136.5526
136.5526
270.5256
0.0 0.0 0.2
65.7352
65.7352
122.4039
122.4039
153.4436
251.3081
0.0 0.0 0.3
95.3167
95.3167
99.976
99.976
207.6958
215.6062
0.0 0.0 0.4
71.222
71.222
119.0272
119.0272
164.1138
246.2402
0.0 0.0 -0.5
39.0091
39.0091
96.4856
134.7241
134.7241
268.2803
0.0 0.1 0.0
36.5892
37.4556
74.9757
147.8896
157.8965
273.3244
0.0 0.1 0.1
50.5201
64.8721
102.272
143.3304
153.3821
267.9594
0.0 0.1 0.2
77.1027
90.4413
129.7827
140.184
159.8874
249.6944
0.0 0.1 0.3
104.027
108.398
115.5348
119.6861
209.2297
216.525
0.0 0.1 0.4
81.9725
94.9102
126.539
137.0565
169.4472
244.9504
0.0 0.1 -0.5
54.8088
69.5772
112.02
141.5918
151.6739
265.7886
0.0 0.2 0.0
69.2728
73.228
140.522
162.7006
192.555
265.8088
0.0 0.2 0.1
79.173
90.7793
153.1198
158.7077
187.8958
261.3213
0.0 0.2 0.2
100.4032
120.2622
146.4758
173.8573
184.3038
247.089
0.0 0.2 0.3
123.3624
127.2132
147.6937
152.128
217.5016
222.7182
0.0 0.2 0.4
104.4629
125.2894
143.5242
170.5908
190.3351
243.5261
0.0 0.2 -0.5
82.4497
95.8729
157.1604
157.647
186.1217
259.5634
0.0 0.3 0.0
94.6428
105.951
177.7429
190.0857
224.7685
254.6339
0.0 0.3 0.1
103.2882
112.7203
174.2877
198.7946
216.7367
254.4254
0.0 0.3 0.2
122.2446
133.1509
163.4845
195.3578
218.332
250.4616
0.0 0.3 0.3
142.8234
146.2705
161.906
167.181
236.7525
239.4426
0.0 0.3 0.4
125.8868
137.8309
160.8538
190.8176
221.8064
249.0768
0.0 0.3 -0.5
106.19
115.3707
172.9355
201.6412
213.9487
254.1405
0.0 0.4 0.0
111.1086
134.2623
188.3994
221.7121
241.3922
245.7673
0.0 0.4 0.1
119.0513
133.3656
185.3538
222.5567
230.0445
256.1664
0.0 0.4 0.2
137.1347
140.6298
175.8058
196.6584
243.8985
260.6841
0.0 0.4 0.3
156.8749
160.1088
162.5737
167.4452
255.6624
257.0915
0.0 0.4 0.4
140.6562
143.5199
173.4535
191.5691
246.3188
260.6387
0.0 0.4 -0.5
121.7705
133.6335
184.164
218.6497
232.1077
257.5333
0.0 -0.5 0.0
119.3492
155.1486
193.8831
229.0997
237.513
255.6113
0.0 -0.5 0.1
126.8203
149.8153
191.0905
215.8651
244.7836
261.761
0.0 -0.5 0.2
144.6207
147.0591
182.3791
190.4621
257.3714
267.6115
0.0 -0.5 0.3
160.3954
164.2727
164.3515
167.5168
266.0864
266.943
0.0 -0.5 0.4
148.1452
148.1572
180.2055
185.6455
259.3191
268.0095
0.0 -0.5 -0.5
129.4365
148.5526
190.0069
211.8774
246.9744
263.1429
0.1 0.1 0.0
52.5674
52.588
102.472
154.3718
170.9529
270.7424
0.1 0.1 0.1
63.7685
76.4428
121.2218
150.1406
166.5336
265.5691
0.1 0.1 0.2
87.1834
104.0226
137.0331
153.5596
167.4508
248.4335
0.1 0.1 0.3
111.801
115.6582
129.8643
133.6764
211.3558
217.9893
0.1 0.1 0.4
91.6067
108.4199
134.0382
150.4968
175.7564
244.0444
0.1 0.1 -0.5
67.4232
81.7788
128.1875
148.5538
164.8587
263.5022
0.1 0.2 0.0
81.3542
86.489
142.8675
176.3439
197.1027
263.4461
0.1 0.2 0.1
93.4124
95.2355
153.6351
175.1723
192.1256
259.4417
0.1 0.2 0.2
112.6842
118.7439
157.0267
177.5923
191.3016
246.7738
0.1 0.2 0.3
130.8373
132.719
154.0253
157.0479
220.4041
225.0541
0.1 0.2 0.4
116.156
123.0404
155.3081
174.2182
196.449
243.602
0.1 0.2 -0.5
96.7976
98.6026
156.4328
175.5403
190.2398
257.8756
0.1 0.3 0.0
111.2434
113.187
174.6169
202.0531
224.0973
252.5274
0.1 0.3 0.1
112.3294
122.4146
178.0146
205.1837
215.8869
253.162
0.1 0.3 0.2
125.9743
139.0189
174.1617
194.3437
220.8135
250.3243
0.1 0.3 0.3
146.2042
148.3421
169.3412
171.8062
237.7387
240.2476
0.1 0.3 0.4
129.5451
142.0082
172.4426
190.1766
223.9258
249.1072
0.1 0.3 -0.5
113.715
125.0427
178.2793
206.4328
213.4471
253.0945
0.1 0.4 0.0
129.6028
138.3535
193.1768
223.1599
239.4116
243.7165
0.1 0.4 0.1
129.5044
141.8917
192.1624
220.5246
230.8687
254.37
0.1 0.4 0.2
133.2168
155.6713
182.3924
199.1958
243.2254
259.244
0.1 0.4 0.3
150.8742
154.6118
178.306
180.908
254.4704
255.8493
0.1 0.4 0.4
135.3793
158.115
179.6471
195.6172
245.5173
259.2345
0.1 0.4 -0.5
129.3702
143.8323
191.2932
217.0777
232.5402
255.8161
0.2 0.2 0.0
99.7155
100.7497
168.2626
189.8365
217.1054
256.7357
0.2 0.2 0.1
104.3183
111.107
171.3511
193.5004
210.4558
255.0986
0.2 0.2 0.2
121.7007
131.1368
165.7717
191.47
211.5017
248.5273
0.2 0.2 0.3
141.2282
143.516
163.381
167.0948
231.8189
234.9311
0.2 0.2 0.4
125.3591
135.0228
163.8413
187.4208
215.1943
246.6763
0.2 0.2 -0.5
106.6298
114.1613
171.3529
195.5081
208.0678
254.3825
0.2 0.3 0.0
124.7702
135.1094
181.4274
217.6971
228.5592
246.5134
0.2 0.3 0.1
122.3123
141.376
187.6123
215.5663
220.6886
251.0947
0.2 0.3 0.2
128.6
153.6491
188.0966
194.405
230.3211
252.3824
0.2 0.3 0.3
148.3279
151.8144
180.7331
181.8664
243.7237
245.6509
0.2 0.3 0.4
131.364
155.3766
186.3133
191.151
232.7831
251.777
0.2 0.3 -0.5
122.3099
143.4084
188.7919
212.3719
221.4073
251.8518
0.2 0.4 0.0
148.9368
160.7601
198.8626
232.385
233.7459
238.4061
0.2 0.4 0.1
140.5378
165.8904
204.7988
214.5208
236.1788
250.2902
0.2 0.4 0.2
134.6953
171.1499
193.0091
208.114
244.1527
256.7865
0.2 0.4 0.3
147.4236
151.3404
197.9116
199.7484
253.3732
254.5197
0.2 0.4 0.4
135.477
169.3489
192.111
207.1038
245.961
256.9812
0.2 0.4 -0.5
138.6082
167.4245
205.0923
211.4591
237.0628
252.0815
0.3 0.3 0.0
133.8886
141.5453
195.1406
225.1591
237.6806
244.6954
0.3 0.3 0.1
132.1843
145.5893
194.2075
220.065
232.6027
254.5622
0.3 0.3 0.2
133.803
158.901
183.4974
200.182
244.7714
259.7951
0.3 0.3 0.3
150.4291
154.2551
181.1282
183.6623
255.5431
256.839
0.3 0.3 0.4
135.6653
161.0043
180.6465
197.0381
246.9845
259.8586
0.3 0.3 -0.5
131.6543
147.5539
193.2868
216.6384
234.3415
256.0565
P	=	199.72	V	=	141.2611	E	=	-655.64304289
0.0 0.0 0.0
0.0
0.0
0.0
164.0335
164.0335
333.3408
0.0 0.0 0.1
36.531
36.531
97.8549
158.3469
158.3469
326.3264
0.0 0.0 0.2
73.8115
73.8115
141.57
141.57
182.5794
302.5561
0.0 0.0 0.3
108.9383
108.9383
114.7438
114.7438
248.9441
259.0083
0.0 0.0 0.4
80.5162
80.5162
137.3757
137.3757
196.092
296.1072
0.0 0.0 -0.5
43.3102
43.3102
114.5601
156.0957
156.0957
323.3745
0.0 0.1 0.0
41.7095
42.64
90.1794
171.6306
184.5131
329.9975
0.0 0.1 0.1
56.8845
75.0301
123.1061
166.3032
179.0813
322.5974
0.0 0.1 0.2
87.3631
104.0962
150.3481
163.2269
192.4893
299.5271
0.0 0.1 0.3
119.4087
124.8547
133.5809
138.7232
251.1617
260.1085
0.0 0.1 0.4
93.3323
109.4843
146.3415
159.3281
204.3728
293.5521
0.0 0.1 -0.5
61.8819
80.5675
135.3569
164.1779
176.9415
319.5966
0.0 0.2 0.0
79.2878
83.695
169.1246
189.0907
227.7521
320.4057
0.0 0.2 0.1
90.3255
106.4643
184.388
184.4861
221.8581
313.8253
0.0 0.2 0.2
115.0058
140.8173
170.2456
204.032
223.0608
295.7439
0.0 0.2 0.3
142.5621
147.3727
172.2307
177.6719
261.9182
268.0439
0.0 0.2 0.4
120.0385
146.7188
166.6308
199.8327
230.6025
291.4011
0.0 0.2 -0.5
94.2075
112.9187
182.6189
190.2086
219.5347
311.2993
0.0 0.3 0.0
108.8945
121.7202
207.2147
229.1429
268.7834
305.7921
0.0 0.3 0.1
118.7207
129.003
203.2278
239.3669
258.5903
306.0738
0.0 0.3 0.2
140.996
153.2772
190.6397
231.0604
263.5107
302.019
0.0 0.3 0.3
165.8281
170.1503
189.0711
195.9323
285.7275
289.0868
0.0 0.3 0.4
145.5417
159.2842
187.4131
225.182
267.853
300.3741
0.0 0.3 -0.5
122.2097
132.1424
201.595
242.6443
255.1584
305.8601
0.0 0.4 0.0
128.5099
155.0472
220.546
267.9507
288.2162
296.5997
0.0 0.4 0.1
137.6632
150.4411
216.9308
266.3952
278.4333
309.4407
0.0 0.4 0.2
157.5593
158.9521
205.5641
235.4067
294.8053
316.0918
0.0 0.4 0.3
182.6688
186.7235
189.5444
196.7505
309.3826
311.3323
0.0 0.4 0.4
161.8555
163.3268
202.6348
228.7548
297.8254
316.0595
0.0 0.4 -0.5
140.9599
149.9332
215.4562
261.6133
281.0077
311.4562
0.0 -0.5 0.0
138.566
179.946
227.7406
271.9354
287.7345
310.3747
0.0 -0.5 0.1
147.2625
171.7518
224.2936
257.1036
296.6902
317.6274
0.0 -0.5 0.2
167.4901
168.1691
213.6198
226.8967
312.0057
325.0939
0.0 -0.5 0.3
187.1681
191.6749
192.8096
195.631
322.8728
324.0445
0.0 -0.5 0.4
169.2537
172.5236
210.8622
220.6658
314.475
325.6027
0.0 -0.5 -0.5
150.4481
169.7204
222.9016
252.2966
299.4806
319.4306
0.1 0.1 0.0
59.9296
60.1927
123.1501
179.4336
200.7181
326.7284
0.1 0.1 0.1
72.4562
89.4017
145.9378
174.61
195.2917
319.306
0.1 0.1 0.2
99.3945
120.7283
159.055
179.4429
202.596
297.4378
0.1 0.1 0.3
128.729
133.5137
150.9085
155.5899
254.0399
261.9739
0.1 0.1 0.4
104.8315
125.9243
155.3971
175.588
212.8739
291.9663
0.1 0.1 -0.5
76.732
95.8229
154.7758
172.8122
193.1553
316.3684
0.1 0.2 0.0
93.1169
99.7637
169.6304
208.2251
233.3939
317.3384
0.1 0.2 0.1
108.2295
110.2897
181.1487
208.5506
227.0594
311.808
0.1 0.2 0.2
129.8597
138.202
183.2325
208.7191
231.3711
296.0303
0.1 0.2 0.3
151.4006
153.6764
180.031
183.6971
265.573
271.0954
0.1 0.2 0.4
134.1326
143.1791
181.2305
204.3513
237.8231
292.153
0.1 0.2 -0.5
111.8545
114.9852
183.8967
209.9844
224.5665
309.6504
0.1 0.3 0.0
127.985
131.1376
204.8524
242.7159
268.0464
302.9791
0.1 0.3 0.1
128.0319
141.5863
208.1611
246.8727
258.2175
305.5861
0.1 0.3 0.2
143.3356
160.9288
203.6054
231.0735
266.5626
303.2555
0.1 0.3 0.3
169.3498
172.1661
198.5486
201.9468
286.991
290.2743
0.1 0.3 0.4
147.9902
164.6167
201.578
225.6301
270.3873
301.6391
0.1 0.3 -0.5
129.3899
144.7326
208.3605
247.8056
255.8944
305.8949
0.1 0.4 0.0
150.8758
159.9899
226.6326
269.7655
285.5412
294.1105
0.1 0.4 0.1
147.2866
164.2013
225.516
265.503
279.7375
308.0749
0.1 0.4 0.2
148.1887
180.5516
215.451
239.9497
293.9751
315.6371
0.1 0.4 0.3
174.3338
179.9421
209.7835
213.2283
307.8497
309.8756
0.1 0.4 0.4
151.2278
183.6133
212.472
234.5813
296.7523
315.4554
0.1 0.4 -0.5
146.0619
166.6373
224.5429
261.6637
281.8057
310.4628
0.2 0.2 0.0
115.1194
115.6755
197.6917
227.0641
258.9421
308.552
0.2 0.2 0.1
119.7714
128.2038
200.1718
232.6704
250.5947
307.1057
0.2 0.2 0.2
140.062
151.715
193.4869
226.2962
255.3502
299.7357
0.2 0.2 0.3
163.7168
166.5612
191.1724
195.9502
279.6687
283.5407
0.2 0.2 0.4
144.6377
156.5051
191.1834
221.047
259.9475
297.4568
0.2 0.2 -0.5
122.5147
131.9205
199.9972
235.2181
247.6571
306.3404
0.2 0.3 0.0
143.9655
157.3482
213.2722
262.4215
274.0044
294.9613
0.2 0.3 0.1
138.4486
164.5056
220.0685
258.752
266.6601
304.5879
0.2 0.3 0.2
143.1512
178.7417
220.8026
233.9135
278.1696
307.847
0.2 0.3 0.3
171.191
176.3707
213.0478
214.0918
294.4328
297.2033
0.2 0.3 0.4
146.8911
180.8869
219.3091
228.8377
281.1018
306.7403
0.2 0.3 -0.5
137.6559
166.935
221.3444
255.0117
267.8096
306.3065
0.2 0.4 0.0
172.7118
188.5881
234.7808
277.9725
280.4542
287.8385
0.2 0.4 0.1
160.9033
194.3675
241.9591
261.1782
286.3902
304.7956
0.2 0.4 0.2
148.4716
201.8289
236.5482
246.4915
295.2691
315.2366
0.2 0.4 0.3
169.1808
176.2792
234.5429
236.3477
306.3414
308.2948
0.2 0.4 0.4
149.1564
200.7278
233.8729
244.8071
297.2826
314.8596
0.2 0.4 -0.5
157.6215
196.1723
243.0385
257.876
287.5405
308.2314
0.3 0.3 0.0
156.0757
163.798
229.1334
272.2366
283.2355
295.4994
0.3 0.3 0.1
150.3813
168.9964
228.1791
265.4087
281.9003
308.5259
0.3 0.3 0.2
148.5619
184.5969
217.7744
241.153
295.9068
316.6001
0.3 0.3 0.3
173.6374
179.5644
213.3347
216.6188
309.1971
311.1427
0.3 0.3 0.4
151.1522
187.2502
214.7058
236.1738
298.573
316.4752
0.3 0.3 -0.5
148.6989
171.4224
227.2088
261.681
284.0527
311.0106
P	=	500.01	V	=	128.7081	E	=	-655.61420345
0.0 0.0 0.0
-0.0
0.0
0.0
195.1729
195.1729
394.1995
0.0 0.0 0.1
51.1398
51.1398
110.1283
188.7432
188.7432
385.4666
0.0 0.0 0.2
94.9169
94.9169
169.0774
169.0774
209.8305
356.6761
0.0 0.0 0.3
132.0739
132.0739
138.6367
138.6367
290.9724
303.8647
0.0 0.0 0.4
102.4
102.4
163.9398
163.9398
226.9405
348.5299
0.0 0.0 -0.5
60.1464
60.1464
130.2394
186.011
186.011
381.6674
0.0 0.1 0.0
45.1289
51.5792
108.4897
203.5821
218.9743
390.0353
0.0 0.1 0.1
72.9382
84.3229
144.2649
197.5578
212.7826
381.7151
0.0 0.1 0.2
109.1613
124.5189
178.9836
194.0059
221.7547
354.6469
0.0 0.1 0.3
143.795
150.0313
159.1075
165.288
294.0553
305.8333
0.0 0.1 0.4
115.9807
131.3988
174.1067
189.1601
236.6435
347.0568
0.0 0.1 -0.5
79.661
92.8114
157.7993
194.989
210.1697
378.1156
0.0 0.2 0.0
90.0306
97.2375
203.1792
223.2808
270.0294
377.9738
0.0 0.2 0.1
110.7111
114.2241
218.0315
220.6071
263.01
371.5974
0.0 0.2 0.2
139.2358
158.5474
201.6286
241.0367
263.2303
351.5439
0.0 0.2 0.3
169.973
175.6101
200.8166
208.171
309.0917
317.1051
0.0 0.2 0.4
145.1344
167.0011
197.2775
235.7046
272.07
346.0588
0.0 0.2 -0.5
115.5473
122.2561
215.7811
227.2515
260.1061
368.8767
0.0 0.3 0.0
132.3337
133.636
244.2894
274.8588
319.7318
359.3602
0.0 0.3 0.1
143.2711
144.2337
239.6463
286.2316
306.3107
361.0639
0.0 0.3 0.2
168.3352
174.9622
225.1291
270.331
314.9481
357.9044
0.0 0.3 0.3
196.5494
201.7024
218.1718
226.8937
340.0838
343.9858
0.0 0.3 0.4
173.7191
182.5799
221.2528
262.6224
320.1278
356.1281
0.0 0.3 -0.5
147.3625
148.6652
237.6588
289.4933
302.2426
361.1465
0.0 0.4 0.0
154.9908
173.4916
260.1749
321.1667
336.7591
354.4863
0.0 0.4 0.1
165.0331
173.8907
255.8723
310.4552
333.3029
367.6005
0.0 0.4 0.2
186.116
188.8599
242.5672
270.3315
353.3178
375.508
0.0 0.4 0.3
215.9365
218.4651
220.8109
226.3203
369.6555
371.6894
0.0 0.4 0.4
190.8303
194.0484
239.0074
261.9054
357.0362
375.6927
0.0 0.4 -0.5
168.8591
174.7915
254.044
303.6104
336.7489
369.9651
0.0 -0.5 0.0
166.327
204.175
268.9534
315.6728
344.8992
372.2491
0.0 -0.5 0.1
176.0633
197.5091
264.8067
297.6672
355.4099
379.9262
0.0 -0.5 0.2
194.8628
199.5829
252.1067
260.6486
373.8368
388.4249
0.0 -0.5 0.3
215.2445
221.5858
226.3654
231.1315
386.5114
387.8217
0.0 -0.5 0.4
196.8176
204.7362
248.7044
252.8927
376.9276
389.1088
0.0 -0.5 -0.5
179.8082
195.8272
263.0556
291.4432
358.8903
382.0059
0.1 0.1 0.0
63.8005
73.8528
148.1814
212.4014
237.9802
385.9422
0.1 0.1 0.1
90.1358
96.7825
173.474
207.0012
231.7141
378.1334
0.1 0.1 0.2
122.1072
139.9794
188.7249
212.7417
235.3722
353.0607
0.1 0.1 0.3
154.2785
159.7428
178.1179
184.0204
298.1345
308.689
0.1 0.1 0.4
128.4139
147.2439
184.3115
207.8993
247.8969
346.0969
0.1 0.1 -0.5
95.8126
105.6224
183.1046
204.8814
229.0831
374.7732
0.1 0.2 0.0
100.6825
120.4566
202.906
247.2794
276.766
374.089
0.1 0.2 0.1
118.1656
131.6781
214.6841
248.755
269.0206
368.5656
0.1 0.2 0.2
154.4142
157.2746
215.519
246.3786
274.4473
351.1699
0.1 0.2 0.3
179.6726
181.7741
210.201
214.9051
314.147
321.1497
0.1 0.2 0.4
160.3386
163.8127
213.0304
240.6924
281.9826
346.4007
0.1 0.2 -0.5
124.4815
135.8068
217.2863
250.8357
265.8192
366.2084
0.1 0.3 0.0
141.0992
157.3318
242.3157
290.5013
318.9205
355.7774
0.1 0.3 0.1
144.967
168.1029
245.457
294.4327
306.0979
358.8352
0.1 0.3 0.2
165.9742
190.3315
239.9277
268.6349
319.2437
357.535
0.1 0.3 0.3
197.8104
201.7873
232.0209
235.4679
341.9247
345.4573
0.1 0.3 0.4
171.9268
194.687
237.3419
261.6204
323.8374
356.1056
0.1 0.3 -0.5
147.4234
171.8863
245.5899
293.3519
304.6926
359.2801
0.1 0.4 0.0
179.5585
180.2936
267.4122
323.3172
333.4098
351.5293
0.1 0.4 0.1
171.575
193.6122
265.7162
307.1225
334.6913
364.4981
0.1 0.4 0.2
176.128
213.9667
250.8245
274.8539
352.6054
372.9186
0.1 0.4 0.3
201.875
208.0356
246.2859
250.2569
367.9133
369.7978
0.1 0.4 0.4
179.5588
217.3607
246.287
269.5949
356.0745
373.2265
0.1 0.4 -0.5
170.928
197.1766
264.3065
300.8793
337.6476
366.9349
0.2 0.2 0.0
126.6123
138.9417
234.1528
271.4444
307.7067
362.8989
0.2 0.2 0.1
135.4631
150.9076
236.158
278.2702
296.9417
361.7477
0.2 0.2 0.2
162.8176
176.943
228.0672
265.1418
305.0656
354.4966
0.2 0.2 0.3
193.0582
196.2856
222.4022
227.9931
332.5379
337.046
0.2 0.2 0.4
169.1657
182.561
225.1742
258.2521
310.5145
352.0053
0.2 0.2 -0.5
139.4277
155.1946
235.789
280.9013
293.3932
361.0166
0.2 0.3 0.0
160.2134
187.3059
252.3417
314.3588
326.3186
345.5376
0.2 0.3 0.1
158.1064
195.2553
259.5673
302.7391
319.5839
355.961
0.2 0.3 0.2
168.5681
211.2353
259.8506
268.1172
333.9501
360.868
0.2 0.3 0.3
198.2253
204.2578
249.7888
251.7275
351.4687
354.0276
0.2 0.3 0.4
173.1038
213.4017
256.6731
263.4216
337.5448
360.4695
0.2 0.3 -0.5
158.4668
198.1448
261.0788
296.3734
321.3398
357.7594
0.2 0.4 0.0
195.1146
223.5792
277.6952
323.9219
335.1778
344.466
0.2 0.4 0.1
184.0872
230.1029
284.8386
297.1022
343.2332
357.1093
0.2 0.4 0.2
176.9116
232.9449
266.5367
290.3637
354.4944
368.1485
0.2 0.4 0.3
195.1656
201.2008
276.3585
279.2438
366.2179
367.5847
0.2 0.4 0.4
178.3145
228.5064
266.38
289.0431
357.0895
368.9416
0.2 0.4 -0.5
181.3309
232.1684
284.1676
292.6533
344.8185
360.047
0.3 0.3 0.0
184.2113
186.2413
270.4045
326.2411
330.468
353.3286
0.3 0.3 0.1
174.9195
199.2798
268.7447
305.8564
337.338
365.191
0.3 0.3 0.2
176.731
218.5733
251.9715
276.6734
354.932
373.8878
0.3 0.3 0.3
200.8469
207.0541
250.7014
254.5911
369.6015
371.3615
0.3 0.3 0.4
179.6993
221.2013
247.4603
272.1854
358.2864
374.297
0.3 0.3 -0.5
173.7654
202.7682
267.1897
299.8565
340.3141
367.6244
P	=	750.02	V	=	121.5835	E	=	-655.58421288
0.0 0.0 0.0
-0.0
-0.0
0.0
214.5855
214.5855
436.6397
0.0 0.0 0.1
56.9892
56.9892
122.4006
207.5525
207.5525
426.9527
0.0 0.0 0.2
105.3365
105.3365
186.148
186.148
233.3538
395.4821
0.0 0.0 0.3
145.7941
145.7941
153.1785
153.1785
323.1784
337.8856
0.0 0.0 0.4
113.8385
113.8385
180.3494
180.3494
253.0846
386.2522
0.0 0.0 -0.5
67.3685
67.3685
145.6432
204.4433
204.4433
422.5915
0.0 0.1 0.0
50.7437
56.7581
119.8425
223.6372
240.6824
431.9322
0.0 0.1 0.1
80.5772
92.9519
160.2338
217.0504
233.8607
422.7434
0.0 0.1 0.2
120.6503
137.1489
196.8724
213.2929
246.5996
393.236
0.0 0.1 0.3
158.4926
165.5245
175.0262
182.0235
326.6165
340.0491
0.0 0.1 0.4
128.429
145.0024
191.3773
207.7976
263.7696
384.6511
0.0 0.1 -0.5
88.3425
102.5903
175.9806
214.131
230.8698
418.6268
0.0 0.2 0.0
100.6109
106.9004
224.3917
245.0232
297.0515
418.3407
0.0 0.2 0.1
121.6816
126.2972
239.2832
243.9711
289.2449
411.4265
0.0 0.2 0.2
153.1455
174.3534
221.5088
264.8291
291.9693
389.7951
0.0 0.2 0.3
186.9273
193.3147
220.5725
228.9207
343.0742
352.2603
0.0 0.2 0.4
159.907
183.9473
216.6148
258.7542
302.2506
383.6193
0.0 0.2 -0.5
127.222
135.2785
236.7299
251.718
285.9139
408.3628
0.0 0.3 0.0
145.3363
148.3219
268.176
303.5636
352.5616
397.4543
0.0 0.3 0.1
157.1882
159.3079
263.0809
316.0041
337.8447
399.6026
0.0 0.3 0.2
184.7268
192.6654
247.2939
297.7276
348.6332
396.5649
0.0 0.3 0.3
215.8821
221.7611
240.2751
250.2265
376.8266
381.3471
0.0 0.3 0.4
190.9117
201.393
242.9137
288.9749
354.6622
394.5865
0.0 0.3 -0.5
161.8372
164.2232
260.8186
319.3958
333.5644
399.7818
0.0 0.4 0.0
170.0769
191.5882
286.0302
354.9512
372.175
391.8691
0.0 0.4 0.1
180.9427
191.6922
281.2768
342.7027
368.6973
406.7192
0.0 0.4 0.2
205.2175
207.076
266.644
298.679
391.0511
415.9087
0.0 0.4 0.3
237.0622
241.3387
242.6669
250.3676
409.4833
411.8523
0.0 0.4 0.4
210.7375
213.036
262.5706
289.096
395.396
416.178
0.0 0.4 -0.5
185.2817
192.672
279.1766
334.8654
372.6771
409.5204
0.0 -0.5 0.0
182.4208
224.9126
296.1
348.6495
381.5465
412.173
0.0 -0.5 0.1
192.9944
217.5909
291.4908
328.8053
393.295
420.7723
0.0 -0.5 0.2
215.2569
218.7853
277.3559
288.3439
414.0133
430.4578
0.0 -0.5 0.3
238.3452
245.6297
248.4833
253.9961
428.3988
429.9325
0.0 -0.5 0.4
217.6875
224.6996
273.412
279.565
417.6434
431.2885
0.0 -0.5 -0.5
197.2481
215.7267
289.4605
321.6968
397.3473
423.2082
0.1 0.1 0.0
71.5736
81.1982
163.6658
233.2399
261.5951
427.3131
0.1 0.1 0.1
99.2681
106.8396
192.1965
227.3928
254.6518
418.7324
0.1 0.1 0.2
134.6234
153.9123
207.4605
233.7622
261.5555
391.4845
0.1 0.1 0.3
169.8698
176.0217
195.7204
202.4008
331.1182
343.1633
0.1 0.1 0.4
141.8373
162.1767
202.4984
228.2513
276.0388
383.6215
0.1 0.1 -0.5
105.805
116.7806
203.3699
225.0892
251.6266
414.9061
0.1 0.2 0.0
112.2846
132.205
223.2647
272.4096
304.498
413.9707
0.1 0.2 0.1
130.5705
144.4952
236.0113
274.6878
295.8361
408.0444
0.1 0.2 0.2
169.6519
172.8066
236.7704
270.7821
304.2787
389.3744
0.1 0.2 0.3
197.4564
199.7896
231.0933
236.3855
348.5948
356.6374
0.1 0.2 0.4
176.3979
180.2678
234.0182
264.2935
313.0635
384.0118
0.1 0.2 -0.5
137.5744
149.2275
238.8246
277.4058
292.1314
405.412
0.1 0.3 0.0
156.3311
172.5568
265.8107
321.0212
351.7197
393.4225
0.1 0.3 0.1
159.7821
184.3539
269.3168
324.9428
338.0218
397.114
0.1 0.3 0.2
182.3702
208.8462
263.629
295.9331
353.4801
396.1606
0.1 0.3 0.3
217.3036
221.7722
255.4908
259.4868
378.8841
382.9751
0.1 0.3 0.4
189.1731
213.8678
260.7843
287.9584
358.8203
394.5799
0.1 0.3 -0.5
162.4251
188.6612
269.5018
323.1355
337.0175
397.7197
0.1 0.4 0.0
197.6546
198.0111
293.6921
357.4464
368.3728
388.6402
0.1 0.4 0.1
188.5421
212.5057
291.9627
338.9791
370.369
403.256
0.1 0.4 0.2
193.6136
234.8362
276.1659
303.3174
390.3064
413.0222
0.1 0.4 0.3
222.2515
229.2364
271.2693
275.8366
407.5332
409.7278
0.1 0.4 0.4
197.6412
238.7515
271.1728
297.2199
394.3456
413.4312
0.1 0.4 -0.5
187.7707
216.5316
290.4001
331.8259
373.7799
406.1429
0.2 0.2 0.0
140.6224
152.4809
256.9943
299.7451
339.088
401.4116
0.2 0.2 0.1
149.4364
165.6515
259.1415
307.3678
327.2692
400.41
0.2 0.2 0.2
178.8699
194.3728
250.5424
291.7962
337.837
392.8994
0.2 0.2 0.3
212.0384
215.719
244.7965
251.1862
368.6028
373.8149
0.2 0.2 0.4
186.0845
200.8421
247.3332
283.9697
344.1798
390.1102
0.2 0.2 -0.5
153.7767
170.5477
258.7277
310.1169
323.5302
399.6623
0.2 0.3 0.0
176.9544
205.314
276.6643
347.7206
360.1035
381.9247
0.2 0.3 0.1
174.0029
213.9091
284.7837
333.8187
353.7614
393.816
0.2 0.3 0.2
185.1616
231.5337
285.7769
295.5641
369.7949
399.7564
0.2 0.3 0.3
217.9148
224.7263
275.0526
277.1781
389.3889
392.3545
0.2 0.3 0.4
190.3984
234.0755
282.513
289.9628
373.9619
399.3567
0.2 0.3 -0.5
174.2804
217.1869
286.5704
326.5014
355.8319
395.9871
0.2 0.4 0.0
214.6607
245.1217
304.6513
357.6357
370.3754
381.1614
0.2 0.4 0.1
202.1709
252.1666
312.946
327.8433
380.059
394.9061
0.2 0.4 0.2
194.3412
255.8077
294.061
319.5436
392.4974
407.6306
0.2 0.4 0.3
214.9082
221.8383
304.2818
307.5673
405.5891
407.1769
0.2 0.4 0.4
196.0716
251.0666
293.6795
318.1025
395.4889
408.5999
0.2 0.4 -0.5
198.9724
254.4946
312.6818
322.3878
381.8945
398.3825
0.3 0.3 0.0
203.0305
204.1533
296.9929
360.6966
365.0696
390.7111
0.3 0.3 0.1
192.1765
218.688
295.3316
337.614
373.2945
404.0413
0.3 0.3 0.2
194.2706
239.8727
277.6176
305.2292
392.889
414.096
0.3 0.3 0.3
221.1707
228.231
276.1104
280.5808
409.4031
411.4543
0.3 0.3 0.4
197.7802
242.9281
272.643
300.0092
396.7948
414.62
0.3 0.3 -0.5
190.8296
222.6349
293.6185
330.7334
376.7334
406.9194
P	=	1000.02	V	=	116.0607	E	=	-655.55152977
0.0 0.0 0.0
-0.0
-0.0
0.0
229.5751
229.5751
472.5055
0.0 0.0 0.1
59.0373
59.0373
134.0889
221.9415
221.9415
462.0794
0.0 0.0 0.2
110.5818
110.5818
198.8496
198.8496
253.8222
427.9753
0.0 0.0 0.3
154.8467
154.8467
163.0813
163.0813
349.8464
365.9089
0.0 0.0 0.4
120.0153
120.0153
192.463
192.463
275.3352
417.7746
0.0 0.0 -0.5
70.1571
70.1571
159.8263
218.5082
218.5082
457.2625
0.0 0.1 0.0
56.2626
60.189
129.2224
239.26
257.7803
467.3296
0.0 0.1 0.1
84.8277
100.3281
173.8437
232.1023
250.3503
457.4686
0.0 0.1 0.2
127.5072
145.8813
210.3402
228.0806
267.8853
425.5665
0.0 0.1 0.3
168.6642
176.4583
186.5006
194.229
353.6232
368.2988
0.0 0.1 0.4
136.0987
154.3646
204.2997
222.0151
286.6844
416.0943
0.0 0.1 -0.5
93.148
110.3215
191.554
228.8762
247.0357
452.9346
0.0 0.2 0.0
110.8908
113.6528
241.9829
262.1059
318.7292
452.3762
0.0 0.2 0.1
129.3661
137.6339
255.8699
263.5065
310.2157
445.0452
0.0 0.2 0.2
163.0968
187.279
236.7318
283.6105
316.1175
421.8335
0.0 0.2 0.3
199.4762
206.4779
235.8409
244.9214
371.3688
381.4448
0.0 0.2 0.4
170.5195
197.4495
231.3742
276.8788
327.521
415.0471
0.0 0.2 -0.5
135.4021
147.1059
253.0496
272.1763
306.5367
441.7053
0.0 0.3 0.0
154.9655
162.2122
286.8358
327.3103
378.9824
429.4068
0.0 0.3 0.1
167.8032
173.267
281.3139
340.7416
363.3904
431.8288
0.0 0.3 0.2
197.4166
207.6086
264.3345
319.4481
376.9112
428.7079
0.0 0.3 0.3
230.6834
237.0729
257.704
268.502
407.3827
412.351
0.0 0.3 0.4
204.1643
216.8954
259.5506
309.834
383.5674
426.5437
0.0 0.3 -0.5
172.9261
178.3764
278.8179
343.9674
359.2657
432.0606
0.0 0.4 0.0
181.7817
207.9939
305.978
382.526
401.7176
422.0419
0.0 0.4 0.1
193.5833
207.6478
300.813
368.893
398.0683
438.7646
0.0 0.4 0.2
221.3135
221.5778
285.0221
321.214
422.425
449.0854
0.0 0.4 0.3
253.3808
259.4439
259.4526
269.2776
442.3142
444.8996
0.0 0.4 0.4
227.2019
228.035
280.5647
310.6699
427.2188
449.4264
0.0 0.4 -0.5
198.3623
208.5633
298.4878
360.2182
402.507
441.9474
0.0 -0.5 0.0
195.2607
242.903
316.8466
376.1854
410.9574
444.5895
0.0 -0.5 0.1
206.7026
234.8982
311.802
354.3899
424.0484
454.1614
0.0 -0.5 0.2
232.1519
234.1877
296.4574
310.4698
446.8736
464.8555
0.0 -0.5 0.3
256.6147
264.5472
265.5511
271.5035
462.6058
464.3103
0.0 -0.5 0.4
234.7609
240.5616
292.1251
300.8114
450.9238
465.7828
0.0 -0.5 -0.5
211.3666
232.8188
309.5383
346.4796
428.6225
456.9099
0.1 0.1 0.0
79.1901
86.2196
176.4662
249.5931
280.3704
462.2485
0.1 0.1 0.1
105.1475
116.0458
207.8499
243.2844
272.7941
453.0709
0.1 0.1 0.2
142.8217
164.5258
221.7158
250.1234
283.7432
423.6841
0.1 0.1 0.3
181.0034
187.7973
208.8922
216.2219
358.5184
371.6883
0.1 0.1 0.4
150.7659
173.3359
216.2567
244.0305
299.6897
415.0227
0.1 0.1 -0.5
112.1623
126.4829
220.3018
240.8778
269.4356
448.8695
0.1 0.2 0.0
123.5277
140.7316
239.9321
292.6828
326.6924
447.5599
0.1 0.2 0.1
142.2022
153.8997
253.3941
295.8643
317.2374
441.3215
0.1 0.2 0.2
181.4794
185.0186
253.4099
290.0255
329.306
421.3499
0.1 0.2 0.3
210.8105
213.4061
247.2989
253.0469
377.298
386.1278
0.1 0.2 0.4
188.4203
193.2939
250.3705
282.8731
339.0729
415.4636
0.1 0.2 -0.5
149.4818
159.0936
256.2386
299.2517
313.1303
438.4665
0.1 0.3 0.0
170.7184
184.1594
284.6588
345.9696
378.0338
424.9412
0.1 0.3 0.1
173.3801
197.1859
288.3931
349.761
364.1209
429.0488
0.1 0.3 0.2
196.1475
223.4552
282.2376
317.529
382.1914
428.2241
0.1 0.3 0.3
232.46
237.208
273.8983
278.3021
409.6219
414.107
0.1 0.3 0.4
203.3134
228.903
279.1621
308.7733
388.0928
426.5063
0.1 0.3 -0.5
175.9934
201.9291
288.5635
347.1031
363.8136
429.7596
0.1 0.4 0.0
211.4541
214.7416
314.285
385.1984
397.4685
418.6047
0.1 0.4 0.1
203.4771
228.1287
312.4779
364.7782
399.9563
434.955
0.1 0.4 0.2
208.3629
251.6487
295.822
325.9321
421.6808
445.9145
0.1 0.4 0.3
238.2484
245.7281
290.9411
295.9257
440.205
442.5873
0.1 0.4 0.4
212.6089
255.8091
290.5445
319.1032
426.1259
446.4146
0.1 0.4 -0.5
202.593
232.4358
310.772
356.8591
403.7763
438.233
0.2 0.2 0.0
153.9842
162.5678
275.2863
322.894
364.2863
433.7398
0.2 0.2 0.1
162.1278
177.28
277.4188
331.3946
351.726
432.8253
0.2 0.2 0.2
191.9933
208.2115
268.0826
312.8927
365.3396
424.9021
0.2 0.2 0.3
226.6128
230.6127
262.3414
269.3143
398.6358
404.3663
0.2 0.2 0.4
199.5864
215.253
264.605
304.2924
372.3647
421.8451
0.2 0.2 -0.5
166.539
182.6985
276.9079
334.0479
348.1248
432.0484
0.2 0.3 0.0
192.5533
219.3753
296.4077
374.9418
387.098
412.264
0.2 0.3 0.1
188.6442
228.7209
305.2654
358.6007
382.0828
425.1214
0.2 0.3 0.2
199.3323
247.626
306.3269
317.2744
399.7957
431.8505
0.2 0.3 0.3
233.3831
240.661
294.9443
297.1977
420.8569
424.0817
0.2 0.3 0.4
204.8152
250.3696
302.893
310.998
404.3895
431.4535
0.2 0.3 -0.5
188.7116
232.3314
307.2112
350.5286
384.4952
427.5752
0.2 0.4 0.0
232.2381
262.5127
326.4866
385.5619
398.4105
411.1071
0.2 0.4 0.1
218.3695
270.0904
335.6778
352.5845
410.4855
425.639
0.2 0.4 0.2
209.2359
273.8915
315.9944
342.8955
424.1215
439.8755
0.2 0.4 0.3
230.4864
237.9484
326.4781
330.0379
438.0359
439.7218
0.2 0.4 0.4
210.9662
268.7789
315.4757
341.2921
427.3907
441.0106
0.2 0.4 -0.5
214.746
272.611
335.5456
346.424
412.5959
429.5764
0.3 0.3 0.0
218.4773
220.0141
317.8498
388.6585
393.8424
420.9238
0.3 0.3 0.1
207.3824
234.7166
316.132
363.3593
403.0588
435.7787
0.3 0.3 0.2
209.0862
257.0253
297.5542
327.9197
424.4367
447.0422
0.3 0.3 0.3
237.1426
244.7166
296.1415
301.0124
442.1939
444.4184
0.3 0.3 0.4
212.7736
260.234
292.3131
322.047
428.7361
447.6685
0.3 0.3 -0.5
205.86
238.9547
314.2707
355.7289
406.9188
439.0444
P	=	1500.48	V	=	107.7708	E	=	-655.48189639
0.0 0.0 0.0
-0.0
-0.0
0.0
257.574
257.574
533.1817
0.0 0.0 0.1
65.3378
65.3378
151.8495
248.9289
248.9289
521.3123
0.0 0.0 0.2
123.3899
123.3899
223.1216
223.1216
287.1202
482.9767
0.0 0.0 0.3
173.5801
173.5801
183.2006
183.2006
395.0404
413.698
0.0 0.0 0.4
134.5106
134.5106
215.7301
215.7301
312.2601
471.1141
0.0 0.0 -0.5
78.2369
78.2369
182.0705
244.9054
244.9054
515.6309
0.0 0.1 0.0
64.4065
67.2287
145.6094
268.1866
288.9838
527.2053
0.0 0.1 0.1
94.4131
111.9863
196.825
260.0836
280.4899
516.0586
0.0 0.1 0.2
142.4289
162.5957
235.8029
255.3897
303.2062
480.3493
0.0 0.1 0.3
188.9945
198.078
208.4464
217.4737
399.497
416.5296
0.0 0.1 0.4
152.5427
172.5294
228.8275
248.3287
325.1675
469.3624
0.0 0.1 -0.5
104.0608
123.3432
217.7551
256.3068
276.573
510.7419
0.0 0.2 0.0
126.2937
126.9484
272.511
293.368
357.2262
509.9121
0.0 0.2 0.1
144.3667
154.8272
286.3239
297.2155
347.4215
501.8574
0.0 0.2 0.2
182.3117
208.9879
265.0388
316.9584
357.4207
476.2989
0.0 0.2 0.3
223.3377
231.4693
262.9949
273.5368
419.7609
431.4678
0.0 0.2 0.4
191.0291
220.6686
258.8729
309.0575
370.8526
468.4968
0.0 0.2 -0.5
151.3841
165.455
283.031
307.4922
343.0858
498.0308
0.0 0.3 0.0
173.0984
183.5488
320.9181
368.2778
425.312
483.303
0.0 0.3 0.1
187.3556
195.1515
314.683
383.1801
407.8837
486.562
0.0 0.3 0.2
220.6072
232.4286
295.7695
357.272
425.3424
483.7705
0.0 0.3 0.3
258.0476
265.4696
287.8642
300.3435
459.9123
465.7165
0.0 0.3 0.4
228.5091
243.0566
290.2511
346.0701
433.201
481.3402
0.0 0.3 -0.5
193.3118
200.8448
311.767
386.0809
403.9423
486.9923
0.0 0.4 0.0
203.0473
234.0182
342.5526
430.1164
451.239
474.465
0.0 0.4 0.1
216.1447
233.4826
336.6774
413.6423
448.2938
493.8926
0.0 0.4 0.2
247.464
248.382
318.9105
360.0783
476.1533
506.2453
0.0 0.4 0.3
283.205
290.2699
290.6508
302.0193
498.8297
501.8556
0.0 0.4 0.4
254.9981
255.1513
313.7182
347.8168
481.8334
506.7375
0.0 0.4 -0.5
221.6878
234.4975
333.9361
403.4763
453.5832
497.7756
0.0 -0.5 0.0
218.0892
272.3894
355.021
421.7791
461.9799
500.4147
0.0 -0.5 0.1
230.7798
263.6244
349.221
397.4778
477.1208
511.4583
0.0 -0.5 0.2
260.7904
261.4348
331.7505
348.5616
503.4429
524.0152
0.0 -0.5 0.3
288.0982
296.6382
297.2976
303.5949
521.5616
523.5832
0.0 -0.5 0.4
263.8588
268.8483
326.6502
337.3796
508.2803
525.163
0.0 -0.5 -0.5
236.1782
261.2851
346.5207
388.3157
482.6074
514.7808
0.1 0.1 0.0
90.4874
96.2471
198.8282
279.6168
314.2084
521.3333
0.1 0.1 0.1
117.1879
130.0558
234.8607
272.5438
305.4973
511.0391
0.1 0.1 0.2
159.5735
183.3978
248.3687
279.791
321.1439
478.3003
0.1 0.1 0.3
202.7377
210.621
233.21
241.7368
405.1725
420.4509
0.1 0.1 0.4
168.9203
193.6378
242.0609
272.6675
339.8108
468.2826
0.1 0.1 -0.5
125.3263
141.8269
249.4561
269.9445
301.5091
506.1442
0.1 0.2 0.0
140.4685
156.8988
269.3603
328.734
366.1034
504.3363
0.1 0.2 0.1
160.013
171.5482
284.1596
333.1229
355.1703
497.579
0.1 0.2 0.2
202.6413
206.5713
283.5855
324.144
372.2414
475.7591
0.1 0.2 0.3
235.783
238.6949
276.1613
282.6947
426.472
436.7336
0.1 0.2 0.4
210.7654
216.1064
280.049
315.7591
383.7768
469.0179
0.1 0.2 -0.5
168.0943
177.6084
287.2124
337.5042
350.2876
494.3448
0.1 0.3 0.0
192.9476
205.3883
318.3297
389.4038
424.2753
478.1311
0.1 0.3 0.1
194.9556
220.0599
322.5292
392.6611
409.5585
483.311
0.1 0.3 0.2
219.383
249.494
315.8
355.1982
431.4026
483.173
0.1 0.3 0.3
259.5767
265.063
306.4726
311.5128
462.5047
467.7297
0.1 0.3 0.4
227.5713
255.8529
312.2693
345.0249
438.3763
481.2844
0.1 0.3 -0.5
197.7622
225.5619
322.7263
388.6594
410.12
484.3103
0.1 0.4 0.0
235.9617
241.4159
351.4702
433.2171
446.3346
470.7071
0.1 0.4 0.1
228.0335
255.0632
349.5155
408.9223
450.5728
489.5057
0.1 0.4 0.2
233.3154
281.1351
331.0482
365.3512
475.3945
502.6021
0.1 0.4 0.3
266.287
274.8497
325.885
331.6908
496.4969
499.2731
0.1 0.4 0.4
238.1945
285.9183
325.0455
357.4229
480.6587
503.3011
0.1 0.4 -0.5
227.0209
259.9768
347.5336
399.6509
455.1281
493.4906
0.2 0.2 0.0
174.4207
181.3844
308.0557
363.3218
408.6397
488.3255
0.2 0.2 0.1
182.2403
198.0922
310.3374
372.8742
394.6058
487.7625
0.2 0.2 0.2
214.5897
232.6442
299.9721
349.8145
412.5074
479.6039
0.2 0.2 0.3
253.2683
257.874
293.2348
301.1878
450.25
456.9321
0.2 0.2 0.4
223.3273
240.8106
295.9734
339.7855
420.8103
476.1493
0.2 0.2 -0.5
187.0959
204.3746
309.7125
375.192
391.2285
487.0109
0.2 0.3 0.0
217.0141
244.5313
331.261
422.1795
434.6197
463.4513
0.2 0.3 0.1
211.998
254.8938
341.3468
401.7423
430.8548
478.5524
0.2 0.3 0.2
223.0823
276.1153
342.818
355.1594
451.1934
487.0089
0.2 0.3 0.3
260.5261
268.8456
330.2019
332.8109
475.0666
478.8053
0.2 0.3 0.4
229.3249
279.3286
338.8625
347.9369
456.6236
486.6863
0.2 0.3 -0.5
211.8954
259.0798
343.6438
392.2105
433.7932
481.6009
0.2 0.4 0.0
260.611
292.8528
364.7451
432.6083
447.3424
463.0954
0.2 0.4 0.1
244.7251
301.1516
375.4085
395.0039
462.6866
478.6072
0.2 0.4 0.2
234.2602
305.3448
354.047
384.0973
478.2431
495.5212
0.2 0.4 0.3
257.6218
266.1401
365.7142
369.8731
494.0519
495.9859
0.2 0.4 0.4
236.2583
299.5697
353.4523
382.2932
482.1089
497.0151
0.2 0.4 -0.5
240.4504
304.0104
375.3642
387.8001
465.2235
483.355
0.3 0.3 0.0
243.7874
247.2049
355.436
437.0652
442.1477
473.4077
0.3 0.3 0.1
232.3763
262.3437
353.5941
407.3398
454.0089
490.4185
0.3 0.3 0.2
234.1291
287.0764
333.0461
367.6118
478.4583
503.8321
0.3 0.3 0.3
265.0804
273.7512
331.7269
337.405
498.7079
501.3
0.3 0.3 0.4
238.3724
290.7332
327.1332
360.7842
483.5547
504.6799
0.3 0.3 -0.5
230.617
267.1922
351.4311
398.4237
458.6144
494.3781
P	=	2000.45	V	=	101.6558	E	=	-655.40959012
0.0 0.0 0.0
-0.0
-0.0
-0.0
279.9651
279.9651
584.0474
0.0 0.0 0.1
68.1531
68.1531
165.325
270.4248
270.4248
570.8827
0.0 0.0 0.2
131.2337
131.2337
242.2163
242.2163
313.1751
528.6184
0.0 0.0 0.3
187.3423
187.3423
198.2901
198.2901
431.6027
452.5413
0.0 0.0 0.4
143.8895
143.8895
233.9519
233.9519
341.3215
515.2739
0.0 0.0 -0.5
82.2116
82.2116
199.0119
265.9044
265.9044
564.4467
0.0 0.1 0.0
69.8884
72.2964
159.0668
291.4607
314.1633
577.359
0.0 0.1 0.1
100.5467
119.957
215.0067
282.5086
304.7383
565.0364
0.0 0.1 0.2
152.5658
174.3451
255.9577
277.1065
331.2841
525.7753
0.0 0.1 0.3
204.2832
214.5632
225.0886
235.3166
436.7784
455.854
0.0 0.1 0.4
164.0076
185.5115
248.1659
269.1715
355.8443
513.4469
0.0 0.1 -0.5
111.0383
132.234
238.3857
278.2608
300.3108
559.0319
0.0 0.2 0.0
136.8416
137.0052
297.7151
318.7775
388.6879
557.987
0.0 0.2 0.1
155.5016
167.3315
310.995
324.7892
377.7789
549.2185
0.0 0.2 0.2
196.832
225.3933
287.713
343.7983
391.1468
521.4301
0.0 0.2 0.3
241.9392
251.0544
284.1649
295.9768
459.5099
472.5888
0.0 0.2 0.4
206.6205
238.3082
280.8359
334.8629
406.2254
512.7462
0.0 0.2 -0.5
163.2599
178.9222
307.2889
336.2741
372.9037
544.9554
0.0 0.3 0.0
187.0975
199.0189
348.8186
402.2752
463.5696
528.1679
0.0 0.3 0.1
202.6617
211.5274
341.9408
418.0934
444.7112
532.0749
0.0 0.3 0.2
239.0022
251.6818
321.2236
387.8283
465.4768
529.4954
0.0 0.3 0.3
279.9046
288.1804
311.6733
325.5483
503.4616
509.9557
0.0 0.3 0.4
247.8305
263.4103
315.0619
375.2512
474.3033
526.8419
0.0 0.3 -0.5
209.3205
217.8083
338.6575
420.4125
441.1461
532.6631
0.0 0.4 0.0
219.9726
253.5985
372.6509
469.7102
492.3134
518.203
0.0 0.4 0.1
234.2826
253.2255
366.1499
450.3608
490.2085
539.8618
0.0 0.4 0.2
268.4247
269.5716
346.5852
391.4841
520.9392
553.9144
0.0 0.4 0.3
307.37
315.2489
315.4217
328.0596
545.961
549.3489
0.0 0.4 0.4
276.812
277.092
340.7578
377.7577
527.3456
554.5367
0.0 0.4 -0.5
240.4737
254.4246
363.0495
438.9037
496.1729
544.3251
0.0 -0.5 0.0
236.6039
295.0566
386.5575
459.55
504.4523
547.3685
0.0 -0.5 0.1
250.3883
285.8732
380.0956
432.8565
521.305
559.5481
0.0 -0.5 0.2
283.3008
283.6731
360.7303
379.2935
550.6476
573.5682
0.0 -0.5 0.3
313.1314
322.015
323.3697
329.79
570.9016
573.1988
0.0 -0.5 0.4
286.7899
291.9091
354.9736
366.8109
556.1666
574.8933
0.0 -0.5 -0.5
256.3873
283.4051
377.0203
422.5766
527.5488
563.316
0.1 0.1 0.0
98.1809
103.6222
217.1942
303.9176
341.6553
570.7834
0.1 0.1 0.1
125.6279
139.971
256.5836
296.1528
331.9604
559.4482
0.1 0.1 0.2
171.6011
197.1941
269.564
303.5221
351.2316
523.5667
0.1 0.1 0.3
219.345
228.2082
251.9394
261.5402
443.2419
460.3259
0.1 0.1 0.4
182.1391
208.6312
262.5058
295.4883
372.1195
512.3559
0.1 0.1 -0.5
134.5226
152.7381
272.7257
293.4365
327.4378
553.9399
0.1 0.2 0.0
152.3723
169.3103
293.3345
358.5304
398.2963
551.7315
0.1 0.2 0.1
173.0259
185.0931
309.013
363.8655
386.0964
544.4465
0.1 0.2 0.2
218.8734
223.0563
307.815
351.618
407.4521
520.854
0.1 0.2 0.3
255.3429
258.4717
298.9101
306.0615
466.9448
478.4057
0.1 0.2 0.4
228.0328
233.5556
303.8161
342.1446
420.4143
513.3729
0.1 0.2 -0.5
181.8181
191.8156
312.1869
368.9865
380.5771
540.8712
0.1 0.3 0.0
209.2054
222.1466
345.8357
425.5023
462.4586
522.3475
0.1 0.3 0.1
211.2079
238.2139
350.3411
427.7728
447.4181
528.424
0.1 0.3 0.2
237.4047
270.3155
342.9746
385.6304
472.2252
528.8131
0.1 0.3 0.3
280.9725
287.1294
332.5706
338.0974
506.3341
512.169
0.1 0.3 0.4
246.4317
277.3821
339.0199
374.2483
480.0448
526.774
0.1 0.3 -0.5
214.2808
244.3563
350.539
422.5598
448.7117
529.6661
0.1 0.4 0.0
255.7353
261.6272
381.9919
473.1309
486.7744
514.2155
0.1 0.4 0.1
247.1219
276.6484
379.8574
445.1156
492.8605
534.9798
0.1 0.4 0.2
252.8846
305.0212
359.5798
397.4432
520.1492
549.841
0.1 0.4 0.3
288.4921
297.9748
354.1786
360.6692
543.3547
546.4541
0.1 0.4 0.4
258.2793
310.2685
352.9168
388.6137
526.0636
550.697
0.1 0.4 -0.5
246.0362
282.1364
377.6208
434.6991
497.994
539.5504
0.2 0.2 0.0
189.1465
196.0104
334.8085
396.8705
445.1565
533.7827
0.2 0.2 0.1
197.2988
214.3154
337.1269
406.996
430.0219
533.4591
0.2 0.2 0.2
232.1229
251.8777
325.7299
379.623
451.5158
524.9979
0.2 0.2 0.3
274.346
279.4478
317.7915
326.5012
492.9551
500.4258
0.2 0.2 0.4
241.8186
260.9241
321.2519
368.3545
460.8411
521.2028
0.2 0.2 -0.5
202.6228
221.3097
336.3849
408.684
427.095
532.7187
0.2 0.3 0.0
235.2583
264.7681
359.7325
461.4521
474.0227
505.8735
0.2 0.3 0.1
229.759
276.0785
370.7523
437.0122
471.6591
522.9531
0.2 0.3 0.2
241.5177
299.177
372.437
385.8168
493.9474
532.8516
0.2 0.3 0.3
281.8649
291.0908
358.7022
361.6287
520.0296
524.1865
0.2 0.3 0.4
248.374
302.6949
367.9542
377.8778
500.0111
532.5766
0.2 0.3 -0.5
229.6239
280.7496
373.3218
426.2356
474.9886
526.5145
0.2 0.4 0.0
282.4406
317.7098
396.0823
471.3467
487.7125
506.8078
0.2 0.4 0.1
265.2251
326.649
407.8926
429.6946
506.4371
522.6714
0.2 0.4 0.2
253.8245
330.8461
385.0113
417.8208
523.3543
541.7759
0.2 0.4 0.3
278.9256
288.3367
397.7173
402.3644
540.5115
542.639
0.2 0.4 0.4
256.0161
324.3818
384.3909
415.8381
527.6358
543.5414
0.2 0.4 -0.5
260.5006
329.7719
407.8742
421.6603
509.3117
528.0844
0.3 0.3 0.0
264.2803
267.8918
386.289
477.2908
482.0905
517.2846
0.3 0.3 0.1
251.8292
284.5802
384.2788
443.4076
496.5657
535.9953
0.3 0.3 0.2
253.771
311.4572
361.7565
399.996
523.471
551.1663
0.3 0.3 0.3
287.1826
296.7789
360.5874
366.941
545.7481
548.6428
0.3 0.3 0.4
258.4643
315.4166
355.2484
392.3811
529.1986
552.1862
0.3 0.3 -0.5
249.9145
289.9923
381.8344
433.4106
501.7639
540.5243
P	=	2499.47	V	=	96.8414	E	=	-655.33621224
0.0 0.0 0.0
0.0
0.0
0.0
300.5825
300.5825
627.0963
0.0 0.0 0.1
72.2562
72.2562
173.7682
290.3929
290.3929
612.7061
0.0 0.0 0.2
140.162
140.162
260.2882
260.2882
332.4514
567.0725
0.0 0.0 0.3
201.0542
201.0542
213.1169
213.1169
461.5441
484.7775
0.0 0.0 0.4
154.1532
154.1532
251.2737
251.2737
363.6201
552.4007
0.0 0.0 -0.5
87.5756
87.5756
210.2647
285.469
285.469
605.5745
0.0 0.1 0.0
71.7907
77.3726
171.2138
312.7877
337.0096
619.7555
0.0 0.1 0.1
107.2555
124.5965
229.8897
303.2113
326.8653
606.3306
0.0 0.1 0.2
163.1707
184.8389
274.8678
297.1394
353.3364
564.0557
0.0 0.1 0.3
219.1698
230.4733
240.6287
251.9796
467.605
488.677
0.0 0.1 0.4
175.7946
197.4174
266.3744
288.4308
380.327
550.5399
0.0 0.1 -0.5
118.6756
138.3735
254.8821
298.5797
322.0062
599.6967
0.0 0.2 0.0
141.7553
146.5803
320.3726
341.8622
416.6881
598.4655
0.0 0.2 0.1
166.4395
174.174
333.5099
349.0915
404.8002
589.0971
0.0 0.2 0.2
210.8331
237.7863
308.6395
367.611
419.9557
559.6208
0.0 0.2 0.3
259.451
269.43
302.3968
315.5511
493.274
507.5642
0.0 0.2 0.4
221.5912
252.2938
301.1529
357.7012
436.3959
550.2172
0.0 0.2 -0.5
174.9046
187.0049
329.4602
361.4652
399.4257
584.4689
0.0 0.3 0.0
200.6556
207.7618
373.9876
432.6081
497.3221
565.6678
0.0 0.3 0.1
217.2546
221.8652
366.5776
448.7677
476.9564
570.5945
0.0 0.3 0.2
256.1923
266.1129
344.4008
414.0041
500.4958
568.7574
0.0 0.3 0.3
300.0758
309.1044
331.2686
346.5707
541.2484
548.3099
0.0 0.3 0.4
265.8507
279.1553
337.6906
400.0983
510.1466
566.0031
0.0 0.3 -0.5
224.5184
229.0075
362.9783
450.2657
473.8165
571.4573
0.0 0.4 0.0
236.2009
266.8159
399.6413
504.7398
526.2815
556.6931
0.0 0.4 0.1
251.421
267.2402
392.6038
481.3077
526.9603
579.7167
0.0 0.4 0.2
285.8985
287.8421
371.5699
417.7674
560.0815
595.348
0.0 0.4 0.3
329.4708
335.5491
338.0539
349.4292
587.0705
590.7657
0.0 0.4 0.4
294.2846
296.9753
365.2043
402.6929
567.1221
596.1204
0.0 0.4 -0.5
258.15
268.8487
389.1884
468.6657
533.5325
584.7028
0.0 -0.5 0.0
254.2805
312.0113
414.7127
490.3765
541.8288
588.6361
0.0 -0.5 0.1
268.8886
302.8405
407.688
462.0563
560.0064
601.5767
0.0 -0.5 0.2
301.0295
304.2566
386.7785
404.7824
591.8407
616.8022
0.0 -0.5 0.3
333.4372
344.6799
345.1461
353.6151
613.9359
616.4843
0.0 -0.5 0.4
304.9942
313.1949
380.468
391.1361
597.9622
618.2857
0.0 -0.5 -0.5
275.3834
300.3863
404.2852
450.8761
566.893
605.7123
0.1 0.1 0.0
101.1167
110.8715
233.8012
326.063
366.3469
612.5322
0.1 0.1 0.1
134.1391
145.2851
275.3751
317.7649
355.8517
600.238
0.1 0.1 0.2
183.6164
208.4672
289.2355
325.0681
375.8811
561.7424
0.1 0.1 0.3
235.2538
244.9343
268.8438
279.4997
475.0262
493.8168
0.1 0.1 0.4
195.2332
221.4383
281.5317
316.208
398.7091
549.4941
0.1 0.1 -0.5
143.863
159.4379
292.6333
314.846
350.8616
594.1768
0.1 0.2 0.0
158.0033
181.0394
315.2132
385.2135
426.9133
591.5772
0.1 0.2 0.1
180.4754
197.8015
331.3308
391.1905
413.5571
583.8981
0.1 0.2 0.2
232.5513
237.2985
329.5748
375.884
437.8255
559.0866
0.1 0.2 0.3
273.445
276.5481
318.6514
326.3374
501.5321
514.0222
0.1 0.2 0.4
243.7007
248.1668
325.125
365.3614
451.9498
551.0291
0.1 0.2 -0.5
190.3723
205.1025
334.5712
396.8001
407.455
580.0604
0.1 0.3 0.0
218.7581
237.778
370.7169
457.6075
496.1766
559.237
0.1 0.3 0.1
222.1409
254.4826
375.2621
458.4131
480.7914
566.6068
0.1 0.3 0.2
251.5571
288.9104
367.1716
411.7111
507.9269
568.0278
0.1 0.3 0.3
299.6595
306.7059
355.0822
360.9207
544.4224
550.7464
0.1 0.3 0.4
261.7049
296.6373
362.758
399.1986
516.4556
565.9571
0.1 0.3 -0.5
225.8112
261.1802
375.4132
451.9406
482.7177
568.2054
0.1 0.4 0.0
274.0926
275.5607
409.3109
508.4002
520.1524
552.5477
0.1 0.4 0.1
261.8679
295.3134
406.8685
475.6526
529.9398
574.3857
0.1 0.4 0.2
268.5251
326.1453
384.5685
424.8317
559.2996
590.8755
0.1 0.4 0.3
307.2258
317.734
378.8512
385.9392
584.2492
587.6141
0.1 0.4 0.4
274.5587
331.8072
377.156
415.3657
565.7797
591.9139
0.1 0.4 -0.5
260.7305
301.5031
404.3472
464.2254
535.605
579.4738
0.2 0.2 0.0
197.1848
209.8689
359.0439
426.8064
477.4294
571.8287
0.2 0.2 0.1
207.4616
228.5271
361.2485
437.0439
461.2151
572.0091
0.2 0.2 0.2
246.4834
268.5165
348.8727
405.3761
485.535
563.82
0.2 0.2 0.3
293.386
298.9115
338.7614
348.0385
529.9166
538.0324
0.2 0.2 0.4
257.504
278.3426
343.9034
392.9092
495.7138
559.8287
0.2 0.2 -0.5
213.6252
236.1016
360.3764
437.9022
458.7602
571.3901
0.2 0.3 0.0
246.9412
283.1925
385.4617
496.113
508.9312
541.0912
0.2 0.3 0.1
241.9597
295.1837
396.9085
467.3628
507.7095
560.7322
0.2 0.3 0.2
255.7673
319.8341
398.4183
412.0645
531.4308
572.3978
0.2 0.3 0.3
299.8851
310.1955
383.5133
386.8332
559.2293
563.7059
0.2 0.3 0.4
263.4765
323.5762
393.142
403.7924
538.0198
572.2591
0.2 0.3 -0.5
242.1138
300.2659
399.643
455.3731
511.3372
564.8832
0.2 0.4 0.0
298.198
340.0039
424.1332
503.1663
523.1365
545.489
0.2 0.4 0.1
280.4685
349.3346
436.468
458.9512
544.8628
560.7851
0.2 0.4 0.2
269.1033
352.941
411.6446
447.3889
562.9047
581.8734
0.2 0.4 0.3
296.4804
306.8228
425.8143
430.9208
581.0965
583.3552
0.2 0.4 0.4
271.6589
345.6187
411.2277
445.2686
567.5321
583.9455
0.2 0.4 -0.5
275.5226
352.6412
436.0251
450.6193
548.0717
566.7456
0.3 0.3 0.0
282.3777
283.2181
413.8742
512.8059
515.0067
555.9424
0.3 0.3 0.1
266.8302
303.9325
411.5324
473.7662
533.8734
575.5549
0.3 0.3 0.2
269.4395
333.0145
386.7225
427.7774
562.8447
592.3042
0.3 0.3 0.3
305.7364
316.339
385.8107
392.7627
586.8083
589.9516
0.3 0.3 0.4
274.7043
337.1946
379.5762
419.6289
569.1231
593.5162
0.3 0.3 -0.5
264.8164
309.9943
408.756
462.863
539.6121
580.5717
P	=	3000.06	V	=	92.893	E	=	-655.26259597
0.0 0.0 0.0
-0.0
-0.0
0.0
319.5902
319.5902
668.0419
0.0 0.0 0.1
77.6042
77.6042
187.1347
308.8024
308.8024
652.6547
0.0 0.0 0.2
149.7225
149.7225
276.8505
276.8505
355.7622
603.8378
0.0 0.0 0.3
213.9634
213.9634
226.877
226.877
491.7193
516.5494
0.0 0.0 0.4
164.6867
164.6867
267.1489
267.1489
389.0537
587.9746
0.0 0.0 -0.5
94.1704
94.1704
226.6615
303.5043
303.5043
644.9053
0.0 0.1 0.0
78.7561
82.6185
182.3192
332.3747
357.8516
660.1163
0.0 0.1 0.1
114.6311
134.1961
245.9647
322.2335
347.0791
645.7998
0.0 0.1 0.2
173.9515
196.9362
292.1641
315.4577
377.726
600.6888
0.0 0.1 0.3
233.0482
245.1502
255.4417
267.5783
498.2765
520.8062
0.0 0.1 0.4
187.4569
210.2572
283.029
306.0691
406.6297
586.1021
0.0 0.1 -0.5
126.9684
148.7174
273.2451
317.2505
341.839
638.6112
0.0 0.2 0.0
154.3321
156.3644
340.9581
362.9113
441.8659
637.1332
0.0 0.2 0.1
177.361
187.8448
354.0543
371.8017
429.2269
627.2578
0.0 0.2 0.2
224.2163
253.4432
327.6872
389.5407
447.6801
596.0474
0.0 0.2 0.3
275.5175
286.2015
320.5744
334.5481
525.5497
540.894
0.0 0.2 0.4
235.7158
268.6434
319.6454
378.8686
465.4228
585.9381
0.0 0.2 -0.5
186.43
201.2649
349.6961
385.1952
423.4911
622.2939
0.0 0.3 0.0
213.797
224.0547
396.786
459.8952
527.4444
601.7382
0.0 0.3 0.1
231.1678
238.3224
388.8993
476.613
506.3607
607.1172
0.0 0.3 0.2
272.0762
283.8781
365.3695
438.8625
532.5388
605.3586
0.0 0.3 0.3
318.3677
328.0353
351.7492
367.9843
575.9724
583.6073
0.0 0.3 0.4
282.388
297.6004
358.1642
424.0094
542.9496
602.3991
0.0 0.3 -0.5
238.8927
245.7266
385.0174
477.536
503.7147
608.0967
0.0 0.4 0.0
251.3966
285.3428
423.9479
535.9581
559.2872
590.8792
0.0 0.4 0.1
267.2592
285.6545
416.4181
510.7798
560.0882
615.9073
0.0 0.4 0.2
305.051
305.4503
394.041
443.6934
595.323
632.9374
0.0 0.4 0.3
349.364
357.0707
358.5591
371.836
624.1589
628.1602
0.0 0.4 0.4
313.9527
315.1968
387.1967
427.6094
602.9325
633.8107
0.0 0.4 -0.5
274.3936
287.3269
412.7199
497.218
567.1602
621.3879
0.0 -0.5 0.0
270.4372
331.9432
439.96
520.7289
574.9692
625.1292
0.0 -0.5 0.1
285.6566
322.5817
432.4137
490.7744
594.4963
639.0625
0.0 -0.5 0.2
321.1494
322.7381
410.109
430.5021
628.6781
655.538
0.0 -0.5 0.3
355.3674
365.8808
367.3458
374.9588
652.4762
655.2569
0.0 -0.5 0.4
325.4533
332.277
403.3121
415.9701
635.3478
657.1696
0.0 -0.5 -0.5
292.541
320.0838
428.7163
478.8242
601.9862
643.5862
0.1 0.1 0.0
110.6263
118.2291
248.9807
346.3167
388.7305
652.3184
0.1 0.1 0.1
143.0995
156.7071
293.8958
337.5665
377.5634
639.2483
0.1 0.1 0.2
195.4753
222.1033
307.2686
344.7781
401.3899
598.2747
0.1 0.1 0.3
249.9871
260.3442
285.1406
296.4928
506.2225
526.3313
0.1 0.1 0.4
207.9035
235.7446
298.9731
335.2225
425.9154
585.078
0.1 0.1 -0.5
153.5571
171.5843
312.5563
334.6311
372.1778
632.7001
0.1 0.2 0.0
171.6361
192.4983
335.2111
409.3348
452.6105
629.703
0.1 0.2 0.1
194.5959
210.2369
352.1392
416.1563
438.3765
621.6599
0.1 0.2 0.2
247.6929
252.2894
349.814
398.2952
466.5289
595.4692
0.1 0.2 0.3
290.165
293.5176
337.949
346.0593
534.2851
547.7147
0.1 0.2 0.4
259.0941
264.1277
344.9946
386.9975
481.7912
586.8153
0.1 0.2 -0.5
204.8618
218.0743
355.4668
422.3634
431.8762
617.5636
0.1 0.3 0.0
235.5391
252.6252
393.2524
486.4013
526.2882
594.8197
0.1 0.3 0.1
238.3457
270.3125
398.0455
486.2457
511.1217
602.793
0.1 0.3 0.2
268.3277
306.4687
389.4687
436.532
540.4708
604.5395
0.1 0.3 0.3
318.0775
325.4248
376.8377
383.076
579.3638
586.1977
0.1 0.3 0.4
278.9494
314.7121
384.7566
423.1876
549.6726
602.3277
0.1 0.3 -0.5
242.057
277.434
398.1897
478.9624
513.5776
604.5714
0.1 0.4 0.0
291.0747
294.4248
433.8811
539.7931
552.7204
586.6331
0.1 0.4 0.1
279.4131
313.7525
431.3071
504.7626
563.3491
610.1964
0.1 0.4 0.2
286.3602
345.9097
407.9638
451.0569
594.5504
628.1473
0.1 0.4 0.3
326.6434
337.68
402.1209
409.7161
621.185
624.8218
0.1 0.4 0.4
292.7448
351.9238
400.1982
440.8741
601.5483
629.3177
0.1 0.4 -0.5
278.2291
320.2534
428.6008
492.5209
569.4442
615.7798
0.2 0.2 0.0
212.9841
223.2355
381.049
453.7555
506.2777
608.3936
0.2 0.2 0.1
222.788
243.1924
383.3094
464.2924
489.5623
608.7587
0.2 0.2 0.2
262.6591
285.2835
370.1436
429.6211
516.8128
600.271
0.2 0.2 0.3
311.3004
317.1698
359.4909
369.339
564.1079
572.8721
0.2 0.2 0.4
274.1772
295.7708
364.8203
416.2986
527.8036
595.9848
0.2 0.2 -0.5
229.108
251.2751
382.3416
464.5058
487.6978
608.1482
0.2 0.3 0.0
264.8445
300.3698
408.6704
526.9452
540.2038
575.2803
0.2 0.3 0.1
259.1443
312.8932
420.8461
495.5011
540.1152
596.1707
0.2 0.3 0.2
272.9655
338.769
422.5412
437.1605
565.337
608.9075
0.2 0.3 0.3
318.6049
329.3782
406.8832
410.3787
594.9486
599.7811
0.2 0.3 0.4
281.037
342.7882
417.0173
428.2656
572.4406
608.7994
0.2 0.3 -0.5
259.1635
318.284
423.7808
482.6483
544.0393
600.7152
0.2 0.4 0.0
317.9139
360.345
449.2512
534.5002
554.5625
579.9617
0.2 0.4 0.1
299.1195
370.0108
462.5255
487.0047
579.2633
595.5128
0.2 0.4 0.2
287.1186
373.9231
437.0217
474.4111
598.4429
618.3915
0.2 0.4 0.3
315.5702
326.4504
451.6365
457.0946
617.8079
620.2314
0.2 0.4 0.4
289.8259
366.3618
436.4753
472.1623
603.4275
620.7047
0.2 0.4 -0.5
293.837
373.4773
462.2512
477.9668
582.7588
602.0068
0.3 0.3 0.0
300.6691
301.4745
438.6628
544.3937
547.1912
590.3078
0.3 0.3 0.1
284.614
322.7581
436.2069
502.8271
567.4439
611.3959
0.3 0.3 0.2
287.3504
353.1084
410.3378
454.159
598.2714
629.6133
0.3 0.3 0.3
325.1509
336.2988
409.4615
416.9118
623.8674
627.2646
0.3 0.3 0.4
292.9295
357.5539
402.8722
445.3698
605.0559
630.9733
0.3 0.3 -0.5
282.4973
329.1388
433.2354
491.1476
573.6321
616.896
P	=	4999.65	V	=	81.8816	E	=	-654.96971659
0.0 0.0 0.0
-0.0
-0.0
0.0
380.9122
380.9122
800.6792
0.0 0.0 0.1
96.1938
96.1938
225.3264
368.3442
368.3442
781.446
0.0 0.0 0.2
182.2443
182.2443
330.7441
330.7441
426.5033
721.7346
0.0 0.0 0.3
256.8118
256.8118
272.1585
272.1585
587.4625
617.5269
0.0 0.0 0.4
200.0667
200.0667
319.0482
319.0482
466.8248
702.1734
0.0 0.0 -0.5
116.7428
116.7428
273.7234
361.9822
361.9822
771.6125
0.0 0.1 0.0
95.9936
99.7779
218.6544
395.7059
425.0208
790.6645
0.0 0.1 0.1
139.3873
160.6934
296.5299
383.8178
412.2972
772.9506
0.0 0.1 0.2
210.0679
235.0668
348.352
374.6545
453.6205
718.1984
0.0 0.1 0.3
278.7961
293.2002
303.4666
318.0162
596.0388
623.2443
0.0 0.1 0.4
226.1799
251.0216
337.3329
363.2311
488.5643
700.3159
0.0 0.1 -0.5
154.6822
178.3408
330.0425
377.8091
405.9356
763.9125
0.0 0.2 0.0
186.8269
188.498
408.3346
431.2193
522.9664
761.6084
0.0 0.2 0.1
213.3941
225.0561
420.6755
445.6115
507.8491
749.9101
0.0 0.2 0.2
268.2952
300.1437
389.4132
459.4959
537.2251
713.117
0.0 0.2 0.3
327.9807
340.7193
377.6267
394.3142
629.6708
648.189
0.0 0.2 0.4
281.9787
317.9797
379.7056
446.4099
558.8552
700.9403
0.0 0.2 -0.5
224.3354
240.7557
415.3663
461.7734
501.1343
743.8997
0.0 0.3 0.0
257.169
268.6906
470.9058
548.9205
624.924
716.9151
0.0 0.3 0.1
276.9899
285.131
461.3685
566.2092
601.8124
724.3533
0.0 0.3 0.2
324.0956
337.1653
433.3143
517.1428
637.0539
723.6347
0.0 0.3 0.3
377.9086
389.4535
415.0169
434.2204
688.9809
698.2741
0.0 0.3 0.4
336.3109
353.2014
424.6061
499.2353
649.7728
720.2202
0.0 0.3 -0.5
286.0544
293.8218
456.5897
564.517
601.2641
725.893
0.0 0.4 0.0
301.7818
339.0462
502.9724
637.3325
663.6423
702.2798
0.0 0.4 0.1
319.5266
340.2694
493.8024
603.9193
667.8634
733.2082
0.0 0.4 0.2
363.12
363.4383
467.0256
524.7062
710.15
755.1459
0.0 0.4 0.3
414.2171
423.4598
425.2308
440.9321
745.0735
749.9962
0.0 0.4 0.4
373.9823
374.6474
458.7335
505.4496
719.5481
756.4294
0.0 0.4 -0.5
327.7781
342.5308
489.226
587.4261
676.5141
740.2956
0.0 -0.5 0.0
324.1851
391.9543
521.9965
615.8515
682.3844
744.4923
0.0 -0.5 0.1
341.1092
382.7055
512.8115
580.819
706.1974
761.4986
0.0 -0.5 0.2
383.0816
383.3505
486.09
510.6881
748.2448
782.0724
0.0 -0.5 0.3
423.1458
433.6527
437.3475
444.5618
778.0876
781.6897
0.0 -0.5 0.4
388.4188
394.6414
477.8358
493.4258
756.7272
784.1593
0.0 -0.5 -0.5
349.0388
380.3259
508.2354
566.5696
715.5572
767.2284
0.1 0.1 0.0
134.5192
142.3168
298.6514
411.934
460.8162
780.8073
0.1 0.1 0.1
172.6976
187.6106
353.4482
401.7762
447.4978
764.8219
0.1 0.1 0.2
234.8336
263.7523
365.6818
408.1624
482.2411
715.5149
0.1 0.1 0.3
298.307
310.5543
337.2828
350.826
606.0989
630.3403
0.1 0.1 0.4
249.6679
279.9938
355.6332
396.4749
511.9352
699.4333
0.1 0.1 -0.5
185.5639
205.2843
375.7533
398.9759
440.924
756.6741
0.1 0.2 0.0
207.3628
229.9907
400.3079
488.2052
535.2614
752.2157
0.1 0.2 0.1
233.4493
250.9878
419.1804
497.7445
518.0909
742.9228
0.1 0.2 0.2
294.4052
299.9158
414.6941
469.6857
559.6656
712.4642
0.1 0.2 0.3
344.2812
347.9495
398.8526
408.1109
640.2026
656.4147
0.1 0.2 0.4
308.2347
313.5432
408.6869
455.903
578.3007
702.1077
0.1 0.2 -0.5
245.4264
260.4338
422.5894
504.8528
511.1829
738.0597
0.1 0.3 0.0
282.0742
301.2708
466.4175
580.1999
623.9394
708.1975
0.1 0.3 0.1
285.2602
321.5841
471.5659
575.1873
610.3519
718.825
0.1 0.3 0.2
319.273
363.2265
460.9248
514.7473
646.7521
722.4651
0.1 0.3 0.3
376.1662
384.865
445.6019
452.8333
693.0682
701.3451
0.1 0.3 0.4
331.6327
372.923
455.1738
498.7936
657.9547
720.0031
0.1 0.3 -0.5
289.5881
329.9642
471.5688
565.1148
614.4848
721.3761
0.1 0.4 0.0
346.8889
349.5803
513.533
641.5411
655.4436
697.9568
0.1 0.4 0.1
332.8609
372.8207
510.2248
596.7246
672.125
726.1835
0.1 0.4 0.2
341.2499
409.6968
482.5169
533.898
709.4319
749.1371
0.1 0.4 0.3
387.2519
400.1115
476.3166
485.4119
741.4456
745.8744
0.1 0.4 0.4
348.7578
416.6276
473.4314
521.7478
718.0129
750.8076
0.1 0.4 -0.5
331.6116
380.4734
506.8382
581.9604
679.6074
733.3325
0.2 0.2 0.0
255.8738
267.1055
452.5353
541.7665
599.5111
725.3056
0.2 0.2 0.1
266.9733
290.1452
454.628
551.9859
581.8273
726.6206
0.2 0.2 0.2
312.4315
338.6406
438.5253
506.2219
618.8246
717.8455
0.2 0.2 0.3
368.7188
375.6057
424.6173
435.9277
675.2418
685.874
0.2 0.2 0.4
325.9527
350.9535
432.0173
490.1495
632.2468
712.8326
0.2 0.2 -0.5
274.3441
299.6834
453.2746
549.3789
582.3823
726.1968
0.2 0.3 0.0
315.9009
356.3941
483.9456
625.9703
643.1359
683.6408
0.2 0.3 0.1
309.4872
370.63
497.8198
584.9069
646.4182
709.7803
0.2 0.3 0.2
325.1029
400.1154
499.3869
516.3121
676.1953
726.8596
0.2 0.3 0.3
376.7897
389.2853
481.2128
485.3396
711.1909
716.9792
0.2 0.3 0.4
334.4484
404.708
492.7006
505.9245
684.7743
727.0265
0.2 0.3 -0.5
309.5346
376.9187
501.2041
569.2612
651.1934
715.7764
0.2 0.4 0.0
376.6345
426.4976
530.5667
632.7926
655.6764
693.2229
0.2 0.4 0.1
355.4683
437.1705
546.1035
575.4546
691.401
707.8195
0.2 0.4 0.2
342.2159
440.6363
517.5256
560.7729
714.4342
736.4082
0.2 0.4 0.3
374.4623
387.0403
534.2052
540.6913
737.0202
739.8292
0.2 0.4 0.4
345.4204
431.834
516.8924
558.1265
720.379
739.5785
0.2 0.4 -0.5
349.4381
441.0154
545.7649
564.7724
696.0801
715.7174
0.3 0.3 0.0
357.6394
357.9682
518.9796
646.708
648.5596
702.6339
0.3 0.3 0.1
338.816
383.247
515.7975
594.5515
676.6673
727.6188
0.3 0.3 0.2
342.4662
417.9489
485.3275
537.7444
713.6717
750.7497
0.3 0.3 0.3
385.6262
398.6013
484.9711
493.9058
744.4865
748.6281
0.3 0.3 0.4
349.045
422.9629
476.7433
527.2096
722.0048
752.6438
0.3 0.3 -0.5
336.4928
390.751
512.0836
580.5314
684.3152
734.6091

weight
   0.0000000   0.0000000   0.0000000   0.0020000   
   0.0000000   0.0000000   0.1000000   0.0040000   
   0.0000000   0.0000000   0.2000000   0.0040000   
   0.0000000   0.0000000   0.3000000   0.0040000   
   0.0000000   0.0000000   0.4000000   0.0040000   
   0.0000000   0.0000000  -0.5000000   0.0020000   
   0.0000000   0.1000000   0.0000000   0.0120000   
   0.0000000   0.1000000   0.1000000   0.0240000   
   0.0000000   0.1000000   0.2000000   0.0240000   
   0.0000000   0.1000000   0.3000000   0.0240000   
   0.0000000   0.1000000   0.4000000   0.0240000   
   0.0000000   0.1000000  -0.5000000   0.0120000   
   0.0000000   0.2000000   0.0000000   0.0120000   
   0.0000000   0.2000000   0.1000000   0.0240000   
   0.0000000   0.2000000   0.2000000   0.0240000   
   0.0000000   0.2000000   0.3000000   0.0240000   
   0.0000000   0.2000000   0.4000000   0.0240000   
   0.0000000   0.2000000  -0.5000000   0.0120000   
   0.0000000   0.3000000   0.0000000   0.0120000   
   0.0000000   0.3000000   0.1000000   0.0240000   
   0.0000000   0.3000000   0.2000000   0.0240000   
   0.0000000   0.3000000   0.3000000   0.0240000   
   0.0000000   0.3000000   0.4000000   0.0240000   
   0.0000000   0.3000000  -0.5000000   0.0120000   
   0.0000000   0.4000000   0.0000000   0.0120000   
   0.0000000   0.4000000   0.1000000   0.0240000   
   0.0000000   0.4000000   0.2000000   0.0240000   
   0.0000000   0.4000000   0.3000000   0.0240000   
   0.0000000   0.4000000   0.4000000   0.0240000   
   0.0000000   0.4000000  -0.5000000   0.0120000   
   0.0000000  -0.5000000   0.0000000   0.0060000   
   0.0000000  -0.5000000   0.1000000   0.0120000   
   0.0000000  -0.5000000   0.2000000   0.0120000   
   0.0000000  -0.5000000   0.3000000   0.0120000   
   0.0000000  -0.5000000   0.4000000   0.0120000   
   0.0000000  -0.5000000  -0.5000000   0.0060000   
   0.1000000   0.1000000   0.0000000   0.0120000   
   0.1000000   0.1000000   0.1000000   0.0240000   
   0.1000000   0.1000000   0.2000000   0.0240000   
   0.1000000   0.1000000   0.3000000   0.0240000   
   0.1000000   0.1000000   0.4000000   0.0240000   
   0.1000000   0.1000000  -0.5000000   0.0120000   
   0.1000000   0.2000000   0.0000000   0.0240000   
   0.1000000   0.2000000   0.1000000   0.0480000   
   0.1000000   0.2000000   0.2000000   0.0480000   
   0.1000000   0.2000000   0.3000000   0.0480000   
   0.1000000   0.2000000   0.4000000   0.0480000   
   0.1000000   0.2000000  -0.5000000   0.0240000   
   0.1000000   0.3000000   0.0000000   0.0240000   
   0.1000000   0.3000000   0.1000000   0.0480000   
   0.1000000   0.3000000   0.2000000   0.0480000   
   0.1000000   0.3000000   0.3000000   0.0480000   
   0.1000000   0.3000000   0.4000000   0.0480000   
   0.1000000   0.3000000  -0.5000000   0.0240000   
   0.1000000   0.4000000   0.0000000   0.0240000   
   0.1000000   0.4000000   0.1000000   0.0480000   
   0.1000000   0.4000000   0.2000000   0.0480000   
   0.1000000   0.4000000   0.3000000   0.0480000   
   0.1000000   0.4000000   0.4000000   0.0480000   
   0.1000000   0.4000000  -0.5000000   0.0240000   
   0.2000000   0.2000000   0.0000000   0.0120000   
   0.2000000   0.2000000   0.1000000   0.0240000   
   0.2000000   0.2000000   0.2000000   0.0240000   
   0.2000000   0.2000000   0.3000000   0.0240000   
   0.2000000   0.2000000   0.4000000   0.0240000   
   0.2000000   0.2000000  -0.5000000   0.0120000   
   0.2000000   0.3000000   0.0000000   0.0240000   
   0.2000000   0.3000000   0.1000000   0.0480000   
   0.2000000   0.3000000   0.2000000   0.0480000   
   0.2000000   0.3000000   0.3000000   0.0480000   
   0.2000000   0.3000000   0.4000000   0.0480000   
   0.2000000   0.3000000  -0.5000000   0.0240000   
   0.2000000   0.4000000   0.0000000   0.0120000   
   0.2000000   0.4000000   0.1000000   0.0240000   
   0.2000000   0.4000000   0.2000000   0.0240000   
   0.2000000   0.4000000   0.3000000   0.0240000   
   0.2000000   0.4000000   0.4000000   0.0240000   
   0.2000000   0.4000000  -0.5000000   0.0120000   
   0.3000000   0.3000000   0.0000000   0.0120000   
   0.3000000   0.3000000   0.1000000   0.0240000   
   0.3000000   0.3000000   0.2000000   0.0240000   
   0.3000000   0.3000000   0.3000000   0.0240000   
   0.3000000   0.3000000   0.4000000   0.0240000   
   0.3000000   0.3000000  -0.5000000   0.0120000   