Number of volumes (nv), q-vectors (nq), normal mode (np), formula units(nm)
12 84 6 1

P	=	-0.27	V	=	138.44622	E	=	-655.45768389
0.0 0.0 0.0
-0.0
-0.0
0.0
236.8224
236.8224
324.3899
0.0 0.0 0.062896
-94.464
-94.464
-81.8622
210.8105
210.8105
297.4716
0.0 0.0 0.125792
-147.5269
-147.5269
-107.3118
153.9002
153.9002
242.0188
0.0 0.0 0.188687
-126.8432
-126.8432
90.1586
130.3114
130.3114
221.9812
0.0 0.0 0.251583
87.7952
87.7952
158.4772
158.4772
213.778
251.3476
0.0 0.0 -0.314479
162.3971
162.3971
162.4233
162.4233
263.3086
263.4025
0.0 0.114903 0.0
-97.0956
17.0921
54.6459
229.3999
234.0903
294.1073
0.0 0.114903 0.062896
-129.3264
-84.657
-53.0961
205.8599
211.2367
269.8561
0.0 0.114903 0.125792
-159.33
-132.6018
-93.4241
152.1736
162.4037
221.8496
0.0 0.114903 0.188687
-131.6356
-108.2864
73.707
123.2223
141.9173
207.508
0.0 0.114903 0.251583
67.3197
99.3151
144.3873
163.1051
192.3277
233.3701
0.0 0.114903 -0.314479
144.9205
146.2513
164.0616
164.1759
241.0051
241.6217
0.0 0.229807 0.0
-145.6347
58.6855
119.094
221.3335
226.6375
231.744
0.0 0.229807 0.062896
-165.0595
-40.1401
105.6769
189.6102
214.3808
220.8092
0.0 0.229807 0.125792
-186.457
-89.7853
92.2418
126.4244
178.8081
202.3426
0.0 0.229807 0.188687
-167.756
-44.2979
80.6777
132.5897
163.6645
202.6886
0.0 0.229807 0.251583
-96.9628
91.9519
125.9148
175.7359
192.6251
221.6496
0.0 0.229807 -0.314479
72.703
81.9481
173.1786
173.529
224.6543
226.8093
0.0 0.34471 0.0
-97.0131
108.8261
187.0038
187.5523
234.8485
239.1146
0.0 0.34471 0.062896
-127.1356
82.4533
162.8646
180.4751
223.0915
227.0963
0.0 0.34471 0.125792
-162.5821
18.5318
109.5882
173.5272
191.3186
215.5994
0.0 0.34471 0.188687
-155.7848
76.2057
79.1041
179.8929
194.6573
223.5028
0.0 0.34471 0.251583
-94.9187
89.3865
153.7626
193.1439
232.4647
245.6957
0.0 0.34471 -0.314479
69.0672
75.4894
192.7914
193.037
253.2926
254.1672
0.0 0.459613 0.0
147.9687
151.543
206.42
241.1611
253.5166
260.7985
0.0 0.459613 0.062896
115.162
119.8611
185.6867
231.094
234.7197
249.5112
0.0 0.459613 0.125792
-59.5687
60.9486
145.2853
198.0495
218.3955
235.5705
0.0 0.459613 0.188687
-72.4484
94.8373
134.8356
188.5643
235.3405
250.4938
0.0 0.459613 0.251583
104.3379
159.2475
172.3282
209.7236
273.0311
282.1601
0.0 0.459613 -0.314479
159.3392
161.9818
213.5663
213.9445
293.9873
295.0807
0.0 -0.574517 0.0
162.4979
212.6586
213.9954
260.9408
263.188
272.1008
0.0 -0.574517 0.062896
131.7532
177.4119
197.512
240.3012
252.0988
258.8821
0.0 -0.574517 0.125792
63.8907
95.0939
162.3719
200.2157
234.8991
245.7252
0.0 -0.574517 0.188687
71.9872
94.7594
158.7643
191.3604
249.5645
265.2645
0.0 -0.574517 0.251583
149.5715
178.4445
190.0884
216.8051
289.8854
300.2006
0.0 -0.574517 -0.314479
193.6304
198.4794
222.2861
222.9608
312.4717
314.4172
0.099509 0.172355 0.0
-141.8717
36.9769
102.7191
223.1489
229.9784
244.1692
0.099509 0.172355 0.062896
-162.2926
-63.2889
82.3386
197.9064
211.6589
229.2918
0.099509 0.172355 0.125792
-183.556
-104.6281
56.3048
137.4555
173.5976
202.7538
0.099509 0.172355 0.188687
-160.4514
-69.5691
94.817
112.978
156.921
200.1853
0.099509 0.172355 0.251583
-72.6756
106.3031
116.5523
169.8455
185.7131
221.0941
0.099509 0.172355 -0.314479
99.9792
100.6589
167.5935
167.8063
224.7113
224.7673
0.099509 0.287258 0.0
-143.6247
79.7761
160.3075
184.9583
227.3949
232.4731
0.099509 0.287258 0.062896
-162.0887
50.1269
151.446
160.2214
217.4493
220.2215
0.099509 0.287258 0.125792
-184.7134
-44.2052
98.973
145.0304
188.4815
207.3142
0.099509 0.287258 0.188687
-173.1762
46.4695
64.7703
165.0873
179.832
212.266
0.099509 0.287258 0.251583
-119.1458
55.0722
140.923
181.337
213.8474
231.5562
0.099509 0.287258 -0.314479
-23.4525
14.6755
178.9557
179.5047
236.8677
237.6345
0.099509 0.402162 0.0
24.1735
125.8558
173.8469
206.3559
245.082
251.8378
0.099509 0.402162 0.062896
-80.4767
103.9607
153.7719
196.758
233.1866
238.7042
0.099509 0.402162 0.125792
-134.0804
65.3926
109.8021
181.3278
210.4309
222.6236
0.099509 0.402162 0.188687
-132.1602
84.0324
104.2133
181.2084
218.5087
232.5084
0.099509 0.402162 0.251583
-57.6003
105.68
164.8533
197.6287
251.2904
258.9409
0.099509 0.402162 -0.314479
98.8774
99.2006
199.4432
199.8704
269.821
270.1824
0.099509 0.517065 0.0
153.6402
164.3865
189.732
237.2785
254.4137
273.8082
0.099509 0.517065 0.062896
123.4276
136.6303
171.6766
222.874
242.0944
258.4148
0.099509 0.517065 0.125792
-29.8139
87.2633
136.4698
196.6065
224.8285
237.0543
0.099509 0.517065 0.188687
-55.0161
110.8961
131.4087
192.0836
238.5812
250.3353
0.099509 0.517065 0.251583
110.1388
157.466
180.1605
213.1324
275.3143
282.7926
0.099509 0.517065 -0.314479
159.6079
163.3914
217.6121
217.7979
295.3345
296.9362
0.199018 0.34471 0.0
-112.0953
109.1206
146.2783
184.7656
238.7455
247.8818
0.199018 0.34471 0.062896
-133.995
93.6026
125.9715
175.8171
228.7945
235.2128
0.199018 0.34471 0.125792
-161.8486
67.9251
78.6949
164.0479
211.9453
214.8511
0.199018 0.34471 0.188687
-155.8524
21.4986
107.2978
170.8004
212.1173
222.8531
0.199018 0.34471 0.251583
-107.1879
47.6897
158.8303
186.3845
239.1627
246.242
0.199018 0.34471 -0.314479
5.0871
18.9886
187.4509
188.1854
256.009
256.2739
0.199018 0.459613 0.0
34.2606
128.6346
142.3511
198.6066
240.7967
269.1971
0.199018 0.459613 0.062896
-67.4929
109.3658
129.1907
188.1995
229.3694
255.536
0.199018 0.459613 0.125792
-119.0271
63.0793
111.7253
173.6534
213.7002
230.6982
0.199018 0.459613 0.188687
-119.0198
46.538
134.221
180.2235
224.1455
230.0046
0.199018 0.459613 0.251583
-54.7594
81.6007
179.0753
199.4569
252.5491
255.1427
0.199018 0.459613 -0.314479
81.9566
84.1081
204.5507
204.616
267.7579
268.3599
0.199018 0.574517 0.0
103.8287
115.5027
156.1076
215.5776
231.1438
276.8698
0.199018 0.574517 0.062896
62.9208
99.2871
141.7842
203.0105
220.5101
262.4137
0.199018 0.574517 0.125792
-87.856
61.0698
121.4205
185.379
206.7869
235.8931
0.199018 0.574517 0.188687
-96.1056
59.5802
142.221
191.1991
220.4208
234.0545
0.199018 0.574517 0.251583
35.2633
98.5369
188.2766
210.5482
252.8202
258.0829
0.199018 0.574517 -0.314479
102.231
105.9821
215.3133
215.3415
269.636
270.7924
0.298528 0.517065 0.0
-44.6503
50.6134
171.0025
191.4841
215.6492
274.9269
0.298528 0.517065 0.062896
-76.3856
-21.5745
161.3147
181.2234
205.3645
261.7111
0.298528 0.517065 0.125792
-111.2052
-75.8065
150.1813
168.5525
192.2705
235.6369
0.298528 0.517065 0.188687
-111.1333
-77.8935
167.1957
181.4705
204.8431
225.742
0.298528 0.517065 0.251583
-68.5892
-29.1084
200.2696
207.6805
233.6522
239.2633
0.298528 0.517065 -0.314479
34.9734
37.2196
217.5224
217.9986
248.5795
248.656
P	=	500.01	V	=	121.3898	E	=	-655.43205856
0.0 0.0 0.0
-0.0
-0.0
0.0
277.8817
277.8817
431.0273
0.0 0.0 0.062774
-95.0039
-95.0039
-73.9063
254.214
254.214
406.2922
0.0 0.0 0.125549
-146.3777
-146.3776
-70.6754
204.1953
204.1953
355.4731
0.0 0.0 0.188323
-116.5001
-116.5001
160.5065
180.8642
180.8642
329.9786
0.0 0.0 0.251097
118.5926
118.5926
196.4108
196.4108
279.2134
341.2096
0.0 0.0 -0.313872
191.7813
191.7813
191.7874
191.7874
338.1795
338.232
0.0 0.115022 0.0
-89.5538
43.3756
99.4436
279.049
280.0315
404.3223
0.0 0.115022 0.062774
-123.7043
-74.3322
73.7589
258.4546
260.0121
382.8178
0.0 0.115022 0.125549
-150.2027
-123.373
62.567
215.5679
216.4923
339.7277
0.0 0.115022 0.188323
-106.4604
-84.0689
164.1589
190.6064
194.747
319.4426
0.0 0.115022 0.251097
119.9833
135.0995
195.8374
204.9417
266.3523
328.1783
0.0 0.115022 -0.313872
186.6339
187.1044
198.0295
198.1735
321.7685
322.3117
0.0 0.230045 0.0
-125.9402
94.7388
193.8754
285.1215
294.2551
345.3788
0.0 0.230045 0.062774
-148.7344
64.7345
191.0981
269.8404
276.3432
334.9615
0.0 0.230045 0.125549
-169.2591
-32.2826
196.3385
233.5192
238.5644
317.9529
0.0 0.230045 0.188323
-136.0304
87.3638
197.2164
222.0921
231.5915
315.1869
0.0 0.230045 0.251097
72.0106
170.5351
183.9077
225.315
283.0023
323.1009
0.0 0.230045 -0.313872
158.4624
161.1466
216.3754
216.72
316.6648
318.7811
0.0 0.345067 0.0
44.1161
147.5888
275.1605
298.789
303.154
326.2959
0.0 0.345067 0.062774
-73.5776
130.5129
271.5357
281.4094
284.9787
329.0211
0.0 0.345067 0.125549
-126.1721
108.8273
233.6538
257.4785
280.0218
329.7091
0.0 0.345067 0.188323
-108.8717
142.7816
202.2134
244.4216
301.9691
338.7134
0.0 0.345067 0.251097
86.361
189.3104
203.6713
248.9463
334.3992
353.0026
0.0 0.345067 -0.313872
163.2085
164.5474
242.1358
242.6257
354.3204
355.5263
0.0 0.46009 0.0
187.1916
204.8999
297.3211
314.852
332.6409
359.8959
0.0 0.46009 0.062774
166.0794
175.9446
279.213
298.8558
328.5049
354.5273
0.0 0.46009 0.125549
110.8643
132.9035
244.3302
268.1438
326.0021
350.9156
0.0 0.46009 0.188323
103.3222
159.0631
227.6087
257.3689
344.6756
365.9392
0.0 0.46009 0.251097
172.0406
223.5449
232.2164
268.5076
377.808
390.3256
0.0 0.46009 -0.313872
221.1296
222.2779
264.9657
265.2508
397.5679
398.5065
0.0 -0.575112 0.0
201.7513
260.8961
294.4929
322.1565
354.1908
373.4793
0.0 -0.575112 0.062774
177.5287
230.2602
280.0705
304.7288
347.4868
365.8425
0.0 -0.575112 0.125549
136.3842
166.6166
250.9617
271.6381
340.4455
360.5097
0.0 -0.575112 0.188323
151.3921
160.2932
242.2195
261.7017
358.1818
378.3229
0.0 -0.575112 0.251097
206.1344
229.5932
255.9432
276.3316
394.3776
406.7532
0.0 -0.575112 -0.313872
250.1023
252.062
273.9587
274.2987
415.3596
417.3596
0.099612 0.172534 0.0
-126.8354
79.0969
168.329
283.0688
288.2628
360.9738
0.099612 0.172534 0.062774
-149.67
35.4035
162.3184
267.1205
270.8538
346.2715
0.099612 0.172534 0.125549
-169.1698
-66.2095
164.8161
229.5277
234.3544
320.1674
0.099612 0.172534 0.188323
-131.0538
64.8054
195.9433
207.0017
217.6877
312.298
0.099612 0.172534 0.251097
88.637
160.6086
187.1087
219.8515
271.1687
320.3459
0.099612 0.172534 -0.313872
166.5135
167.4197
210.776
210.9197
313.1758
313.2403
0.099612 0.287556 0.0
-108.8308
128.7478
237.6906
298.9947
308.0427
310.641
0.099612 0.287556 0.062774
-133.9032
115.7545
235.8565
276.1288
288.3443
318.8128
0.099612 0.287556 0.125549
-160.2205
104.0655
228.6961
236.6794
268.5538
317.9701
0.099612 0.287556 0.188323
-139.0556
139.5129
192.2096
238.673
277.7428
324.0608
0.099612 0.287556 0.251097
25.558
169.9108
199.1695
241.8615
311.1029
335.4068
0.099612 0.287556 -0.313872
139.9202
142.0213
233.4466
233.9244
333.9743
334.9884
0.099612 0.402578 0.0
125.824
174.9631
282.8457
283.7565
325.6732
344.9715
0.099612 0.402578 0.062774
88.1298
162.1475
264.6068
277.5506
318.7276
339.9057
0.099612 0.402578 0.125549
-71.2261
147.2863
226.859
264.2598
310.9214
336.058
0.099612 0.402578 0.188323
-63.9673
171.3063
203.5452
258.6828
325.8664
347.295
0.099612 0.402578 0.251097
113.1418
190.7627
228.2399
264.9619
354.9803
366.6732
0.099612 0.402578 -0.313872
173.4181
174.221
260.1577
260.3241
372.699
372.7279
0.099612 0.517601 0.0
201.8991
222.2497
276.2632
310.0245
342.8335
370.8793
0.099612 0.517601 0.062774
179.5132
199.4906
260.6254
299.1912
336.4046
361.5455
0.099612 0.517601 0.125549
122.5177
168.9271
228.7923
278.711
330.6112
351.8451
0.099612 0.517601 0.188323
110.8998
188.1751
215.9682
272.5225
347.6508
365.4736
0.099612 0.517601 0.251097
171.1191
222.696
244.12
282.9905
380.4843
391.0335
0.099612 0.517601 -0.313872
215.7669
217.2296
279.7489
280.2401
399.335
400.8506
0.199225 0.345067 0.0
32.1059
171.9505
258.7353
269.3685
326.6091
335.8559
0.199225 0.345067 0.062774
-71.5523
166.1134
252.1383
255.7309
323.8446
326.7364
0.199225 0.345067 0.125549
-119.9272
162.8733
215.3179
253.1284
311.7319
322.3582
0.199225 0.345067 0.188323
-109.7347
170.0777
201.6379
257.0211
316.529
333.3082
0.199225 0.345067 0.251097
56.741
162.6236
233.4367
262.7567
340.5826
351.0592
0.199225 0.345067 -0.313872
137.3659
139.0362
257.9185
258.549
356.5397
356.6163
0.199225 0.46009 0.0
144.0824
209.6753
240.644
278.6648
329.9396
365.0115
0.199225 0.46009 0.062774
117.2987
201.7943
228.9434
274.945
324.0639
354.7479
0.199225 0.46009 0.125549
43.7114
184.2748
212.0971
271.6569
319.0872
337.7484
0.199225 0.46009 0.188323
27.9464
168.957
227.4811
276.7293
331.4093
341.3234
0.199225 0.46009 0.251097
112.4582
169.123
261.0224
285.345
356.2715
361.6962
0.199225 0.46009 -0.313872
157.8976
158.622
283.6356
283.8239
370.4299
370.9169
0.199225 0.575112 0.0
185.8058
221.5642
223.7523
298.3351
320.606
374.7833
0.199225 0.575112 0.062774
160.3139
209.1463
218.5215
292.6453
315.533
363.7277
0.199225 0.575112 0.125549
104.093
182.026
214.2811
286.3379
312.5311
345.0758
0.199225 0.575112 0.188323
85.2548
168.7583
234.4099
289.3675
329.2638
346.8145
0.199225 0.575112 0.251097
132.7243
175.4986
270.9616
297.7805
358.0316
365.9942
0.199225 0.575112 -0.313872
169.3862
170.7032
295.5739
295.9807
373.6584
374.7343
0.298837 0.517601 0.0
151.148
188.7852
249.8263
279.2956
304.7302
373.7838
0.298837 0.517601 0.062774
133.1456
175.8414
247.2187
276.4526
300.3214
362.9917
0.298837 0.517601 0.125549
91.5037
146.7062
248.5923
277.4313
298.7879
341.3817
0.298837 0.517601 0.188323
76.4353
129.789
266.6353
292.1765
314.3297
331.2703
0.298837 0.517601 0.251097
110.4294
136.2572
293.768
308.1446
338.0464
341.2544
0.298837 0.517601 -0.313872
136.1524
136.581
310.2643
310.5362
349.5352
349.5421
P	=	1000.19	V	=	111.47402	E	=	-655.38263648
0.0 0.0 0.0
-0.0
-0.0
-0.0
301.035
301.035
504.5743
0.0 0.0 0.062722
-91.0738
-91.0738
-59.5814
280.6477
280.6477
481.1121
0.0 0.0 0.125445
-138.2883
-138.2883
51.059
238.4773
238.4773
432.0638
0.0 0.0 0.188167
-98.9209
-98.9209
205.4776
217.1867
217.1867
402.1517
0.0 0.0 0.25089
139.3454
139.3454
223.8329
223.8329
323.6719
401.918
0.0 0.0 -0.313612
211.472
211.472
211.4874
211.4874
388.5432
388.6811
0.0 0.115102 0.0
-77.0115
62.347
128.5207
307.6243
312.0853
479.9863
0.0 0.115102 0.062722
-112.1304
-53.8011
118.8349
289.7844
295.4252
459.7886
0.0 0.115102 0.125445
-133.2725
-105.2887
132.2602
253.0977
259.5975
418.4284
0.0 0.115102 0.188167
-65.2887
-34.8243
218.2695
233.4584
235.715
394.0181
0.0 0.115102 0.25089
152.4365
161.4753
232.1612
236.2985
316.9188
392.4764
0.0 0.115102 -0.313612
215.0586
215.8181
223.0648
223.1342
376.8926
377.2057
0.0 0.230205 0.0
-94.3801
124.9686
244.3633
324.0487
344.4298
424.4885
0.0 0.230205 0.062722
-121.9178
106.435
246.9257
310.2821
330.3187
414.4007
0.0 0.230205 0.125445
-141.4016
86.1821
260.0973
282.1089
295.2822
397.572
0.0 0.230205 0.188167
-85.5447
134.4767
259.977
265.4285
296.1519
392.0123
0.0 0.230205 0.25089
138.6783
204.9988
238.5218
263.7567
344.8523
393.4169
0.0 0.230205 -0.313612
206.6432
209.5606
250.4695
250.6393
381.0848
382.183
0.0 0.345307 0.0
118.2521
180.4127
336.2421
343.883
378.2032
389.6482
0.0 0.345307 0.062722
80.9351
167.9753
331.048
336.2542
351.7808
400.5299
0.0 0.345307 0.125445
-60.1896
155.513
304.0512
305.231
350.8391
407.0796
0.0 0.345307 0.188167
42.4109
186.107
269.9303
290.8246
373.7679
416.6456
0.0 0.345307 0.25089
153.546
241.2944
248.1783
290.632
404.1405
427.0122
0.0 0.345307 -0.313612
215.8899
217.7803
279.9052
280.1627
424.7873
425.2717
0.0 0.46041 0.0
217.7961
241.4527
358.9135
360.688
396.0726
428.4904
0.0 0.46041 0.062722
201.0021
216.2878
341.2989
346.038
394.72
427.0026
0.0 0.46041 0.125445
166.0456
177.8474
307.1336
317.4026
397.5419
428.9881
0.0 0.46041 0.188167
161.7508
202.3399
285.9219
304.3728
418.0823
444.3201
0.0 0.46041 0.25089
215.8368
260.246
280.5731
309.1669
449.792
464.8396
0.0 0.46041 -0.313612
262.7552
263.8004
301.0967
301.3099
469.4141
469.9945
0.0 -0.575512 0.0
230.7153
293.8371
349.4323
367.4992
417.2446
443.3688
0.0 -0.575512 0.062722
210.993
266.381
335.8367
351.6392
413.0881
438.9055
0.0 -0.575512 0.125445
181.1271
211.5719
308.0989
320.9983
411.4204
438.3641
0.0 -0.575512 0.188167
198.3975
203.6402
295.316
308.4122
431.2303
456.1092
0.0 -0.575512 0.25089
244.5266
265.3176
299.5343
315.7742
466.0554
480.8598
0.0 -0.575512 -0.313612
287.0932
289.3966
308.6685
308.8773
487.2663
488.3186
0.099682 0.172654 0.0
-102.6334
109.4837
212.7407
320.8814
332.7172
439.5959
0.099682 0.172654 0.062722
-128.5927
87.4004
212.8889
307.1083
318.6513
425.899
0.099682 0.172654 0.125445
-145.7107
60.1286
224.9559
278.9541
284.7873
400.4457
0.099682 0.172654 0.188167
-84.9662
119.0726
253.2297
257.6445
272.361
388.7309
0.099682 0.172654 0.25089
143.0297
194.8905
236.1783
258.1002
330.3249
388.8283
0.099682 0.172654 -0.313612
208.248
209.0568
244.2609
244.9104
374.7172
374.7614
0.099682 0.287756 0.0
-37.4094
166.0631
290.4329
349.7167
368.8416
387.1334
0.099682 0.287756 0.062722
-86.871
158.558
291.1393
337.9561
346.818
392.6981
0.099682 0.287756 0.125445
-121.9051
156.032
291.5009
298.031
331.8882
395.0817
0.099682 0.287756 0.188167
-83.7313
187.1768
260.1036
288.9866
346.7494
400.8455
0.099682 0.287756 0.25089
124.5725
223.9812
246.7768
287.3321
378.5268
407.8566
0.099682 0.287756 -0.313612
195.0783
197.0125
275.123
275.9412
402.4316
402.9146
0.099682 0.402859 0.0
175.6087
212.4539
335.6169
352.9387
385.0072
411.702
0.099682 0.402859 0.062722
149.0899
204.257
328.7774
335.0241
382.5975
410.7263
0.099682 0.402859 0.125445
93.5765
197.7611
293.022
320.4917
381.7552
412.9755
0.099682 0.402859 0.188167
99.8204
220.9724
265.5735
312.7854
399.0364
425.1513
0.099682 0.402859 0.25089
168.264
241.4625
274.9153
313.2559
426.7732
441.1712
0.099682 0.402859 -0.313612
220.3159
220.8494
304.1544
304.635
444.2951
444.4345
0.099682 0.517961 0.0
237.3297
260.9766
334.9084
359.6282
405.3126
439.9296
0.099682 0.517961 0.062722
219.0384
241.8591
318.8572
351.8213
401.9048
433.8974
0.099682 0.517961 0.125445
174.5217
220.0084
286.5175
335.2414
401.744
429.7815
0.099682 0.517961 0.188167
165.1882
238.6878
268.8759
327.3954
421.0994
443.8817
0.099682 0.517961 0.25089
211.5363
265.4896
288.9449
331.1799
452.8877
465.8569
0.099682 0.517961 -0.313612
252.9896
254.4304
323.3029
323.5711
471.8749
472.7133
0.199363 0.345307 0.0
125.289
216.5992
310.67
344.6718
388.3579
399.8079
0.199363 0.345307 0.062722
95.3269
214.7975
310.7493
325.0924
391.1464
392.7822
0.199363 0.345307 0.125445
-27.7636
217.9281
286.8354
312.5774
382.3037
396.5755
0.199363 0.345307 0.188167
41.3297
228.4855
265.4393
315.6783
389.3131
409.11
0.199363 0.345307 0.25089
135.0733
218.9586
286.3898
316.6487
412.0721
424.3394
0.199363 0.345307 -0.313612
191.1988
192.5142
308.4353
309.1231
427.6442
427.7024
0.199363 0.46041 0.0
199.2657
256.8587
308.195
333.6525
392.1675
432.8181
0.199363 0.46041 0.062722
178.437
253.606
295.8411
333.9194
389.8858
424.6378
0.199363 0.46041 0.125445
136.3743
245.4124
276.2814
336.4223
390.788
412.3037
0.199363 0.46041 0.188167
128.1645
229.3142
288.3077
340.917
405.097
418.008
0.199363 0.46041 0.25089
167.5911
220.3259
317.1389
344.021
429.0871
436.0075
0.199363 0.46041 -0.313612
204.2465
204.8139
338.3986
338.5121
442.898
443.2112
0.199363 0.575512 0.0
237.1079
270.9889
285.063
354.743
382.6665
443.2419
0.199363 0.575512 0.062722
214.6823
270.9395
272.3365
353.3102
380.7446
434.441
0.199363 0.575512 0.125445
171.4733
244.8768
274.3803
352.7238
383.731
420.6452
0.199363 0.575512 0.188167
155.354
226.7116
295.1819
354.6281
403.0837
424.4045
0.199363 0.575512 0.25089
182.8638
223.3632
327.6069
357.3725
430.9994
441.1029
0.199363 0.575512 -0.313612
212.3821
213.5651
351.1696
351.3934
446.695
447.3152
0.299045 0.517961 0.0
215.4995
256.7134
304.0701
338.724
366.21
441.8212
0.299045 0.517961 0.062722
200.9802
244.1503
305.5253
340.3214
365.607
432.7515
0.299045 0.517961 0.125445
170.5317
216.9034
312.9179
348.7831
371.1212
414.2521
0.299045 0.517961 0.188167
156.0479
196.8746
331.9027
364.9857
389.363
404.8673
0.299045 0.517961 0.25089
169.9352
192.4297
356.5412
375.3775
411.4372
413.9215
0.299045 0.517961 -0.313612
187.0651
187.3574
372.9183
373.143
421.498
421.5684
P	=	1499.96	V	=	104.51056	E	=	-655.32403192
0.0 0.0 0.0
-0.0
0.0
0.0
328.2402
328.2402
564.9221
0.0 0.0 0.062684
-80.6854
-80.6854
-22.2811
310.7121
310.7121
543.3644
0.0 0.0 0.125368
-118.1605
-118.1605
114.2906
273.8605
273.8605
497.3103
0.0 0.0 0.188051
-54.1386
-54.1386
247.2011
250.7406
250.7406
464.4919
0.0 0.0 0.250735
161.3492
161.3492
247.2331
247.2331
362.7742
454.1935
0.0 0.0 -0.313419
228.2409
228.2409
228.2437
228.2437
431.5287
431.572
0.0 0.115159 0.0
-63.6154
76.264
150.2382
336.6661
343.7034
541.4397
0.0 0.115159 0.062684
-94.296
25.3393
151.8
321.3566
329.8573
523.1764
0.0 0.115159 0.125368
-101.532
-66.9227
181.4532
289.2394
299.1301
484.6813
0.0 0.115159 0.188051
73.5213
84.2519
264.7583
268.1447
274.2639
457.2996
0.0 0.115159 0.250735
181.656
185.7799
261.8558
262.535
359.8207
446.3564
0.0 0.115159 -0.313419
238.7824
239.2768
243.4529
243.5278
422.366
422.7102
0.0 0.230318 0.0
-51.3356
147.9358
282.6504
357.1217
385.7568
487.2151
0.0 0.230318 0.062684
-84.3699
137.1186
289.6954
345.3471
374.4633
478.8493
0.0 0.230318 0.125368
-94.8497
131.7077
310.3179
320.5637
344.9485
463.8811
0.0 0.230318 0.188051
78.1264
172.3997
302.8788
309.4404
348.4628
455.4818
0.0 0.230318 0.250735
183.5063
233.4756
280.6261
295.1061
394.8164
449.7682
0.0 0.230318 -0.313419
243.6378
245.8916
277.2672
277.3266
431.5352
432.8978
0.0 0.345476 0.0
157.5786
206.0685
380.9113
383.8426
437.2653
439.9254
0.0 0.345476 0.062684
136.4313
198.0698
369.7278
386.9086
407.0958
458.9927
0.0 0.345476 0.125368
103.8883
193.648
346.5284
360.4025
407.5483
470.7472
0.0 0.345476 0.188051
132.3139
222.92
324.0852
330.7377
431.5151
480.3366
0.0 0.345476 0.250735
199.4424
272.5962
293.8487
324.8797
459.7443
486.0514
0.0 0.345476 -0.313419
255.6887
257.0564
310.1407
310.1971
479.9174
480.6238
0.0 0.460635 0.0
242.0723
269.9715
400.5053
408.9482
447.7615
483.6094
0.0 0.460635 0.062684
230.3121
250.0826
387.3011
392.4225
449.1901
485.7228
0.0 0.460635 0.125368
212.5125
217.3674
359.9692
360.6179
456.7261
493.4798
0.0 0.460635 0.188051
209.5682
241.9268
335.1871
344.9309
478.2444
509.3699
0.0 0.460635 0.250735
252.1053
292.9928
320.3692
343.1561
507.6673
525.6915
0.0 0.460635 -0.313419
295.9128
296.8774
331.4155
331.4414
526.738
527.4864
0.0 -0.575794 0.0
253.7955
320.3228
394.9422
408.3412
470.1158
499.7224
0.0 -0.575794 0.062684
239.6738
297.6055
382.8804
393.8681
468.2086
498.719
0.0 -0.575794 0.125368
221.8215
253.2039
357.4009
364.8561
470.9058
503.6507
0.0 -0.575794 0.188051
241.4517
244.9606
341.0993
348.865
491.7324
521.6031
0.0 -0.575794 0.250735
277.8711
298.5153
335.92
349.0865
524.3218
542.0173
0.0 -0.575794 -0.313419
317.4437
319.4085
338.4642
338.5491
544.8539
546.2962
0.09973 0.172738 0.0
-74.3418
131.9272
246.1613
353.991
370.6248
502.3117
0.09973 0.172738 0.062684
-100.0021
120.3222
251.782
342.5526
359.1578
490.4657
0.09973 0.172738 0.125368
-106.6232
115.0932
272.3263
318.8707
330.4149
467.2538
0.09973 0.172738 0.188051
70.6432
159.8316
295.895
299.2113
322.1594
452.4269
0.09973 0.172738 0.250735
182.6843
223.2574
274.888
289.3819
378.2111
444.6041
0.09973 0.172738 -0.313419
240.2396
241.1176
271.2822
271.8106
423.8177
423.9225
0.09973 0.287897 0.0
89.4788
194.3095
329.897
391.2842
415.0637
448.9164
0.09973 0.287897 0.062684
54.9504
191.4521
332.9829
383.394
396.8928
454.1403
0.09973 0.287897 0.125368
-44.4369
196.2761
335.0282
352.392
384.9134
459.2806
0.09973 0.287897 0.188051
85.1431
225.6718
312.8204
331.8325
402.2289
464.005
0.09973 0.287897 0.250735
174.1931
261.1585
288.3732
324.3706
432.0893
465.7413
0.09973 0.287897 -0.313419
234.593
236.1684
308.2567
308.9933
455.9207
456.5729
0.09973 0.403056 0.0
210.4933
241.2984
376.5695
408.1093
433.5757
464.6755
0.09973 0.403056 0.062684
191.1676
237.7664
372.1386
389.0528
435.1841
467.8065
0.09973 0.403056 0.125368
156.7662
239.0223
345.4981
369.3665
439.6226
476.2771
0.09973 0.403056 0.188051
161.1915
262.1003
316.2845
359.0189
458.2105
489.2984
0.09973 0.403056 0.250735
209.1414
280.7837
314.0629
353.1126
483.9202
501.294
0.09973 0.403056 -0.313419
255.7433
256.1896
339.8675
340.2519
501.0416
501.1566
0.09973 0.518215 0.0
264.7027
291.1135
382.3971
401.9361
457.1008
495.257
0.09973 0.518215 0.062684
251.3555
277.0438
366.4566
397.4779
456.3155
492.547
0.09973 0.518215 0.125368
219.175
263.7971
335.3409
384.3137
460.9488
494.2425
0.09973 0.518215 0.188051
211.5592
282.5642
314.1593
374.2975
481.5137
509.1082
0.09973 0.518215 0.250735
246.0777
300.9391
327.3107
371.2749
511.1792
527.0438
0.09973 0.518215 -0.313419
283.0965
284.3959
359.0581
359.4415
529.5905
530.7056
0.199461 0.345476 0.0
169.874
250.3996
350.398
402.7045
437.3801
450.346
0.199461 0.345476 0.062684
151.9722
252.2401
353.7668
381.3671
445.5725
446.4725
0.199461 0.345476 0.125368
120.9878
260.9906
343.8866
360.788
439.3723
458.684
0.199461 0.345476 0.188051
131.0388
273.2905
318.0183
364.068
447.67
472.1606
0.199461 0.345476 0.250735
181.7196
261.7392
328.5559
360.1856
468.493
483.5631
0.199461 0.345476 -0.313419
229.7389
230.7758
348.1394
348.8016
483.6598
483.6881
0.199461 0.460635 0.0
238.0411
292.5959
360.0482
377.0133
442.3886
486.2305
0.199461 0.460635 0.062684
222.3468
293.6138
348.1952
381.4495
443.7363
480.5212
0.199461 0.460635 0.125368
192.6437
293.5427
329.0398
389.5477
450.2431
473.3921
0.199461 0.460635 0.188051
184.4863
278.6074
337.6503
393.7678
465.3528
481.2261
0.199461 0.460635 0.250735
208.7673
261.2124
361.7548
391.4043
487.1072
496.0802
0.199461 0.460635 -0.313419
239.4021
239.939
381.562
381.7114
500.1247
500.5108
0.199461 0.575794 0.0
274.971
306.6273
333.6167
400.3609
432.8553
497.265
0.199461 0.575794 0.062684
256.3248
311.7908
321.9111
403.2148
433.9082
491.126
0.199461 0.575794 0.125368
223.139
296.5885
322.7619
408.1257
442.3047
482.729
0.199461 0.575794 0.188051
207.9056
275.223
344.5489
408.8951
463.3606
488.3473
0.199461 0.575794 0.250735
222.7477
262.3495
372.9759
405.7375
489.315
501.7377
0.199461 0.575794 -0.313419
245.9671
247.0942
395.1807
395.4634
504.2785
505.0819
0.299191 0.518215 0.0
260.1813
306.1505
345.8866
384.5522
414.8982
494.9793
0.299191 0.518215 0.062684
249.3791
295.145
351.3789
390.5462
418.3425
488.1467
0.299191 0.518215 0.125368
226.6424
271.7154
364.2745
406.287
430.9677
473.6012
0.299191 0.518215 0.188051
211.6554
249.8834
383.8233
423.7791
451.2957
465.0759
0.299191 0.518215 0.250735
213.9353
235.9093
405.5801
428.718
470.4511
472.0634
0.299191 0.518215 -0.313419
224.71
225.0807
421.6218
421.7977
478.3065
478.3508
P	=	1999.78	V	=	99.17659	E	=	-655.26092456
0.0 0.0 0.0
-0.0
-0.0
0.0
358.2849
358.2849
616.3168
0.0 0.0 0.062655
-74.8922
-74.8922
42.3444
340.403
340.403
595.4985
0.0 0.0 0.12531
-104.6965
-104.6965
146.9898
301.7236
301.7236
550.4213
0.0 0.0 0.187965
46.181
46.181
273.9242
273.9242
279.888
515.6508
0.0 0.0 0.25062
180.0501
180.0501
265.0141
265.0141
397.7794
499.6627
0.0 0.0 -0.313275
243.8807
243.8807
243.8807
243.8807
470.8921
470.8921
0.0 0.115193 0.0
-63.1465
79.4833
164.7147
363.988
373.4459
591.7923
0.0 0.115193 0.062655
-85.4796
45.6109
172.3375
348.7608
359.6232
574.6458
0.0 0.115193 0.12531
-75.592
-30.6752
212.5642
315.8734
328.1753
537.6343
0.0 0.115193 0.187965
110.56
111.902
291.2314
299.1702
300.1078
508.113
0.0 0.115193 0.25062
202.4102
202.6851
280.5591
282.605
394.9602
491.0307
0.0 0.115193 -0.313275
257.155
257.155
258.8047
258.8047
461.0122
461.0122
0.0 0.230387 0.0
-33.5509
155.7242
309.6972
380.7677
417.4495
534.7052
0.0 0.230387 0.062655
-60.1536
148.8919
319.6048
369.9301
407.023
528.1392
0.0 0.230387 0.12531
-42.3161
150.9148
345.434
346.4159
379.4397
515.1747
0.0 0.230387 0.187965
124.2322
191.5443
327.1693
342.2445
386.2947
504.5921
0.0 0.230387 0.25062
209.0806
249.6412
307.427
314.9331
431.6791
493.3508
0.0 0.230387 -0.313275
267.2274
267.2274
293.5196
293.5196
470.5549
470.5549
0.0 0.34558 0.0
175.783
219.467
406.0686
420.1472
478.2356
480.6801
0.0 0.34558 0.062655
162.714
214.3747
396.0834
424.6178
447.9578
503.7589
0.0 0.34558 0.12531
147.1142
215.1677
374.7851
400.8028
450.2882
519.6535
0.0 0.34558 0.187965
170.8398
244.9409
358.1103
361.9864
475.3185
529.4902
0.0 0.34558 0.25062
225.6604
292.3177
323.9438
348.2222
502.3461
531.8912
0.0 0.34558 -0.313275
280.2433
280.2433
330.0308
330.0308
523.0106
523.0106
0.0 0.460774 0.0
260.3522
292.2824
430.9904
448.3629
490.2607
528.98
0.0 0.460774 0.062655
251.5794
275.9425
418.5074
432.457
493.2505
533.5153
0.0 0.460774 0.12531
244.5233
245.5466
392.6692
400.5685
503.7042
545.2608
0.0 0.460774 0.187965
242.4334
270.144
372.7293
375.3518
526.5046
561.8581
0.0 0.460774 0.25062
278.0818
318.3737
350.9309
369.8384
555.4633
575.6219
0.0 0.460774 -0.313275
321.2396
321.2396
355.7858
355.7858
574.9512
574.9512
0.0 -0.575967 0.0
274.0828
344.3084
432.9151
441.6584
515.0435
547.8599
0.0 -0.575967 0.062655
263.1676
324.3655
421.6508
427.5717
514.3387
548.8811
0.0 -0.575967 0.12531
251.9318
285.3417
396.9619
398.6654
519.5761
557.1875
0.0 -0.575967 0.187965
273.6581
276.4652
377.7815
380.489
541.5875
575.7679
0.0 -0.575967 0.25062
304.7421
326.6819
366.1522
377.1141
573.8284
594.0227
0.0 -0.575967 -0.313275
344.0115
344.0115
364.9
364.9
595.4753
595.4753
0.09976 0.17279 0.0
-68.789
139.4769
268.8508
379.3152
400.6885
550.6949
0.09976 0.17279 0.062655
-85.4146
132.5898
277.7413
368.7675
389.8257
540.5458
0.09976 0.17279 0.12531
-71.2667
136.1476
303.9599
346.7847
362.0406
519.3966
0.09976 0.17279 0.187965
115.2175
180.2237
320.6092
329.4133
358.357
502.1033
0.09976 0.17279 0.25062
205.2995
239.952
300.0528
309.4847
414.521
487.8906
0.09976 0.17279 -0.313275
260.4864
260.4864
289.0051
289.0051
461.7086
461.7086
0.09976 0.287984 0.0
108.1081
207.694
356.2659
421.4205
449.0253
493.6926
0.09976 0.287984 0.062655
92.9974
207.8245
360.7463
415.8541
432.9079
500.42
0.09976 0.287984 0.12531
83.0637
217.5926
363.8678
389.9573
423.9973
508.3687
0.09976 0.287984 0.187965
130.6192
247.4085
347.0237
361.5318
443.3507
512.2497
0.09976 0.287984 0.25062
198.8322
281.8647
315.7762
348.5775
471.9636
509.6402
0.09976 0.287984 -0.313275
256.6373
256.6373
329.5729
329.5729
496.3627
496.3627
0.09976 0.403177 0.0
230.9421
259.6009
405.718
448.4155
471.1522
506.0999
0.09976 0.403177 0.062655
216.4506
259.1403
402.3116
429.0012
476.0341
512.1536
0.09976 0.403177 0.12531
192.1676
265.388
381.312
406.2699
484.3515
525.412
0.09976 0.403177 0.187965
195.4629
289.0995
351.6777
392.7662
504.2638
539.3904
0.09976 0.403177 0.25062
233.3352
306.5575
341.9472
381.938
528.9902
548.5499
0.09976 0.403177 -0.313275
277.7803
277.7803
365.6568
365.6568
545.9578
545.9578
0.09976 0.518371 0.0
285.984
314.6019
419.3625
434.9323
499.6782
541.0703
0.09976 0.518371 0.062655
275.366
304.0425
402.8011
433.0398
500.4993
540.5326
0.09976 0.518371 0.12531
250.3352
295.6795
371.7878
421.8871
508.2237
546.179
0.09976 0.518371 0.187965
243.4921
314.6827
347.9839
410.3453
530.1467
561.9505
0.09976 0.518371 0.25062
271.2159
328.003
357.3441
403.0054
559.3315
577.4769
0.09976 0.518371 -0.313275
306.6353
306.6353
388.1342
388.1342
578.4348
578.4348
0.199521 0.34558 0.0
189.7704
270.9643
377.121
443.1392
473.2668
488.6458
0.199521 0.34558 0.062655
178.706
275.0582
383.0375
420.4627
485.5425
487.8747
0.199521 0.34558 0.12531
161.1015
287.3387
383.8159
394.1529
482.7197
505.9153
0.199521 0.34558 0.187965
168.099
300.7703
354.5335
397.6633
492.446
520.3766
0.199521 0.34558 0.25062
205.3289
287.2851
357.0572
390.2661
511.807
528.6847
0.199521 0.34558 -0.313275
250.5131
250.5131
375.4738
375.4738
526.3438
526.3438
0.199521 0.460774 0.0
260.7066
317.3093
395.6147
408.5774
480.6212
528.0393
0.199521 0.460774 0.062655
249.0587
320.8191
384.4701
416.1896
484.8444
524.0686
0.199521 0.460774 0.12531
226.9301
325.2777
366.6478
428.1421
495.9361
520.8901
0.199521 0.460774 0.187965
217.9693
311.3179
372.6102
432.1837
512.2038
530.5471
0.199521 0.460774 0.25062
232.9201
287.4041
393.9202
426.0887
532.6468
543.0253
0.199521 0.460774 -0.313275
260.3966
260.3966
413.2504
413.2504
545.2264
545.2264
0.199521 0.575967 0.0
299.1796
332.4238
366.7197
434.4395
472.1696
540.194
0.199521 0.575967 0.062655
283.471
341.0898
356.1343
440.3317
475.229
535.8807
0.199521 0.575967 0.12531
256.5114
332.5229
357.1177
449.148
487.5671
531.3979
0.199521 0.575967 0.187965
241.0897
308.5482
379.979
449.2223
510.3252
538.6883
0.199521 0.575967 0.25062
247.9241
288.3019
406.5492
442.1265
535.3401
549.8581
0.199521 0.575967 -0.313275
267.749
267.749
428.5807
428.5807
550.5275
550.5275
0.299281 0.518371 0.0
285.5177
336.5486
376.012
417.85
451.0556
536.0602
0.299281 0.518371 0.062655
278.3119
327.4465
384.2379
427.1484
457.5469
530.6977
0.299281 0.518371 0.12531
261.5117
307.4258
400.7066
448.6721
475.9389
518.7541
0.299281 0.518371 0.187965
245.5351
283.8104
420.7868
467.2489
498.3869
511.1189
0.299281 0.518371 0.25062
239.2767
261.883
441.1571
468.1411
515.502
516.7713
0.299281 0.518371 -0.313275
245.5984
245.5984
457.6092
457.6092
521.7796
521.7796
P	=	2500.0	V	=	94.87624	E	=	-655.19538411
0.0 0.0 0.0
-0.0
-0.0
0.0
378.8388
378.8388
660.6839
0.0 0.0 0.062632
-75.1208
-75.1208
56.6836
360.4154
360.4154
639.8091
0.0 0.0 0.125263
-103.0827
-103.0827
166.0033
320.2385
320.2385
594.1441
0.0 0.0 0.187895
62.6198
62.6199
290.2518
290.2518
303.1976
557.1258
0.0 0.0 0.250527
191.0429
191.0429
279.1356
279.1356
425.6302
536.9913
0.0 0.0 -0.313159
256.2747
256.2747
256.2747
256.2747
503.438
503.438
0.0 0.115214 0.0
-71.4063
75.5439
174.3715
382.6893
394.122
634.4518
0.0 0.115214 0.062632
-86.5341
40.8074
184.8532
367.1934
380.0632
617.6129
0.0 0.115214 0.125263
-65.0842
-24.9684
231.9493
333.3434
347.7731
580.5736
0.0 0.115214 0.187895
119.4807
123.3015
306.7268
317.8191
323.7022
548.7593
0.0 0.115214 0.250527
211.5778
213.7821
293.488
297.6994
422.5565
527.0695
0.0 0.115214 -0.313159
269.4821
269.4821
269.8503
269.8503
492.2565
492.2565
0.0 0.230428 0.0
-53.2651
154.0066
329.1113
397.1981
440.9729
573.2692
0.0 0.230428 0.062632
-60.1952
148.8286
340.6455
386.6175
430.8243
567.7179
0.0 0.230428 0.125263
35.906
154.8241
363.1967
369.9747
403.8076
555.656
0.0 0.230428 0.187895
142.1945
198.0956
342.5449
364.7661
414.1333
543.036
0.0 0.230428 0.250527
221.8985
257.4194
325.7579
327.3865
460.5635
527.4511
0.0 0.230428 -0.313159
281.079
281.079
303.0994
303.0994
500.9477
500.9477
0.0 0.345641 0.0
182.1679
225.4685
424.6355
448.6388
509.0815
515.1751
0.0 0.345641 0.062632
173.8232
221.4975
414.9034
453.6494
479.6969
539.4301
0.0 0.345641 0.125263
166.7002
224.6803
393.7737
430.5069
482.9696
557.934
0.0 0.345641 0.187895
190.2799
255.9677
376.0247
389.1432
509.324
567.9312
0.0 0.345641 0.250527
240.9052
304.1028
345.4468
363.7684
536.5828
568.3526
0.0 0.345641 -0.313159
296.3001
296.3001
343.2209
343.2209
557.6824
557.6824
0.0 0.460855 0.0
274.4352
308.6309
454.8332
480.5629
526.069
567.2501
0.0 0.460855 0.062632
266.2964
293.7357
442.032
464.4249
529.6423
572.8623
0.0 0.460855 0.125263
260.795
265.9971
415.3107
431.5753
541.4203
586.5898
0.0 0.460855 0.187895
263.1136
287.6588
396.7221
401.0388
565.4414
604.0388
0.0 0.460855 0.250527
297.2517
336.6376
374.8765
389.9179
595.2
617.2118
0.0 0.460855 -0.313159
341.3706
341.3706
374.8464
374.8464
615.5095
615.5095
0.0 -0.576069 0.0
291.5693
364.1221
464.6129
468.2223
553.8499
589.0653
0.0 -0.576069 0.062632
281.1683
344.8563
453.0798
453.4913
553.285
590.8582
0.0 -0.576069 0.125263
271.3571
307.0247
423.0652
427.4219
559.2205
600.6216
0.0 -0.576069 0.187895
295.4098
297.1679
403.4185
406.0362
582.3534
619.9947
0.0 -0.576069 0.250527
325.9048
348.1211
391.1761
399.2844
615.7922
638.0244
0.0 -0.576069 -0.313159
366.2306
366.2306
386.7718
386.7718
638.5947
638.5947
0.099778 0.172821 0.0
-81.9294
137.7575
284.2399
397.1914
422.2388
590.4025
0.099778 0.172821 0.062632
-87.9765
132.665
295.0139
386.9303
411.551
581.1185
0.099778 0.172821 0.125263
-52.5179
140.5542
324.8394
365.8545
383.8899
560.7058
0.099778 0.172821 0.187895
131.1271
187.3094
336.5214
349.8945
384.6083
541.1651
0.099778 0.172821 0.250527
216.6496
248.1691
316.8649
322.5585
442.4797
522.1929
0.099778 0.172821 -0.313159
272.1969
272.1969
300.1489
300.1489
491.7503
491.7503
0.099778 0.288034 0.0
106.3614
212.2402
374.3507
444.6072
475.1566
529.0229
0.099778 0.288034 0.062632
99.9293
213.9029
379.4383
440.2887
460.0609
536.8773
0.099778 0.288034 0.125263
105.0322
226.6031
382.887
416.7315
453.1418
546.6438
0.099778 0.288034 0.187895
148.6333
257.8698
368.8295
382.8602
474.466
549.7224
0.099778 0.288034 0.250527
210.5441
293.1692
334.2532
364.6972
503.2192
543.9584
0.099778 0.288034 -0.313159
268.6191
268.6191
343.2108
343.2108
528.1176
528.1176
0.099778 0.403248 0.0
242.0043
271.3017
427.3591
480.0127
501.433
539.9532
0.099778 0.403248 0.062632
230.0277
272.234
424.0898
459.7176
508.532
547.7038
0.099778 0.403248 0.125263
210.4117
280.8179
405.6239
434.1837
519.3028
563.918
0.099778 0.403248 0.187895
213.5899
305.4741
376.2113
417.1171
540.5696
578.7934
0.099778 0.403248 0.250527
247.8007
323.6109
361.8653
403.0765
565.4363
586.6701
0.099778 0.403248 -0.313159
292.3172
292.3172
384.6114
384.6114
582.7134
582.7134
0.099778 0.518462 0.0
302.4612
332.0962
448.9693
460.4491
535.2211
579.6083
0.099778 0.518462 0.062632
292.2353
323.2738
430.5479
460.4859
536.732
580.0718
0.099778 0.518462 0.125263
269.2811
316.8887
398.1706
449.871
546.071
587.7252
0.099778 0.518462 0.187895
262.8991
336.4413
372.2505
437.2205
569.3682
604.4298
0.099778 0.518462 0.250527
288.7912
348.2549
380.0377
427.8555
599.324
619.3484
0.099778 0.518462 -0.313159
324.2955
324.2955
411.3947
411.3947
619.2282
619.2282
0.199556 0.345641 0.0
196.6753
283.46
395.7867
473.8769
501.0323
519.1013
0.199556 0.345641 0.062632
189.8212
288.5637
403.3582
449.3438
516.8693
520.0959
0.199556 0.345641 0.125263
179.195
302.5467
412.2894
417.1804
516.0473
542.4422
0.199556 0.345641 0.187895
185.3054
316.9131
380.1044
420.9588
527.064
557.8246
0.199556 0.345641 0.250527
216.6678
302.7111
377.019
411.5735
545.987
564.2638
0.199556 0.345641 -0.313159
261.4681
261.4681
394.7899
394.7899
560.3436
560.3436
0.199556 0.460855 0.0
273.494
334.2283
421.7349
431.5504
510.3035
561.8085
0.199556 0.460855 0.062632
264.2128
339.0544
410.475
441.5525
516.6018
558.7697
0.199556 0.460855 0.125263
245.892
345.8999
393.1014
456.0194
531.1521
558.0047
0.199556 0.460855 0.187895
236.0142
332.473
397.2064
460.1031
548.8586
569.1149
0.199556 0.460855 0.250527
245.9689
303.7786
417.5211
452.0234
568.9997
580.485
0.199556 0.460855 -0.313159
272.2395
272.2395
437.2396
437.2396
581.4591
581.4591
0.199556 0.576069 0.0
314.612
350.4031
390.4801
459.7426
502.7026
575.0562
0.199556 0.576069 0.062632
300.4401
361.2288
380.2986
467.7124
507.1831
571.7155
0.199556 0.576069 0.125263
276.3282
356.9736
380.6053
479.1777
522.5592
569.5752
0.199556 0.576069 0.187895
260.0536
330.5352
404.9889
479.0119
547.2241
578.2059
0.199556 0.576069 0.250527
262.2128
304.8691
431.6694
469.79
572.364
588.3799
0.199556 0.576069 -0.313159
280.3451
280.3451
454.2894
454.2894
587.7521
587.7521
0.299334 0.518462 0.0
299.8928
356.264
396.6178
441.7578
477.6872
568.4252
0.299334 0.518462 0.062632
295.2569
348.4808
406.8317
453.6141
486.6138
563.8117
0.299334 0.518462 0.125263
282.0893
330.3631
426.202
479.7932
509.7983
553.2237
0.299334 0.518462 0.187895
264.5983
304.6348
447.5561
499.4966
534.4371
546.3887
0.299334 0.518462 0.250527
251.8763
276.0633
467.9347
497.8568
550.5458
551.5727
0.299334 0.518462 -0.313159
255.034
255.034
485.0516
485.0516
555.8411
555.8411
P	=	3000.06	V	=	91.28617	E	=	-655.12842946
0.0 0.0 0.0
-0.0
-0.0
0.0
390.5159
390.5159
699.9878
0.0 0.0 0.06261
-75.7028
-75.7028
68.2222
372.6644
372.6644
679.0431
0.0 0.0 0.12522
-103.1095
-103.1095
182.3801
333.8043
333.8043
632.658
0.0 0.0 0.18783
69.3382
69.3382
304.3506
304.3506
322.9122
593.1244
0.0 0.0 0.25044
198.1847
198.1847
291.6895
291.6895
448.7698
568.6796
0.0 0.0 -0.31305
266.1205
266.1205
266.1205
266.1205
530.5453
530.5453
0.0 0.115227 0.0
-67.6179
75.4877
184.8133
395.8209
409.0352
673.4565
0.0 0.115227 0.06261
-82.1948
41.1328
197.4836
380.6015
395.277
656.3633
0.0 0.115227 0.12522
-54.1531
-15.2947
249.2949
347.2932
363.5639
618.2631
0.0 0.115227 0.18783
125.6611
132.6629
320.5451
333.4633
345.0205
584.0298
0.0 0.115227 0.25044
219.5183
223.5011
305.8547
311.7762
447.1206
558.7845
0.0 0.115227 -0.31305
279.6624
279.6624
281.6172
281.6172
520.2307
520.2307
0.0 0.230453 0.0
-18.8118
157.8566
349.1497
413.3157
463.16
610.8603
0.0 0.230453 0.06261
-34.7225
153.1144
361.4406
402.464
452.8383
604.6777
0.0 0.230453 0.12522
64.0569
160.6697
378.3271
392.4229
425.4312
591.0517
0.0 0.230453 0.18783
156.5972
206.0871
356.6992
384.5223
439.6224
576.6382
0.0 0.230453 0.25044
236.4416
267.4417
340.4205
343.7979
488.4959
559.3445
0.0 0.230453 -0.31305
297.2453
297.2453
314.8081
314.8081
531.03
531.03
0.0 0.34568 0.0
198.1704
235.139
443.6053
476.162
538.5618
549.323
0.0 0.34568 0.06261
189.6184
230.958
433.2439
480.944
509.4873
572.7616
0.0 0.34568 0.12522
182.1884
234.2407
410.728
456.2106
512.4482
591.6386
0.0 0.34568 0.18783
205.9914
266.9203
391.8445
412.32
539.9968
601.7791
0.0 0.34568 0.25044
257.9246
317.1316
366.3821
379.038
568.7774
602.1673
0.0 0.34568 -0.31305
315.2263
315.2263
357.7931
357.7931
591.0156
591.0156
0.0 0.460906 0.0
288.2617
324.7933
476.1774
510.204
558.1755
601.7347
0.0 0.460906 0.06261
279.6949
309.9251
462.5332
492.9172
561.9993
607.9587
0.0 0.460906 0.12522
273.8156
282.2926
434.0515
457.8129
574.3997
622.7218
0.0 0.460906 0.18783
279.6549
301.7638
414.35
424.7968
599.5261
640.8637
0.0 0.460906 0.25044
314.5761
352.7618
396.154
407.5292
630.6208
654.1917
0.0 0.460906 -0.31305
360.3805
360.3805
392.3048
392.3048
652.0102
652.0102
0.0 -0.576133 0.0
306.7577
380.6129
490.5933
492.2496
587.4917
625.301
0.0 -0.576133 0.06261
295.9442
361.587
474.9286
480.1614
586.9871
627.5941
0.0 -0.576133 0.12522
285.8069
324.158
442.5632
453.0752
593.4425
638.3105
0.0 -0.576133 0.18783
312.678
312.7291
421.7674
429.6041
617.672
658.3079
0.0 -0.576133 0.25044
343.4594
365.6386
412.2737
417.8247
652.4236
676.3631
0.0 -0.576133 -0.31305
385.1113
385.1113
405.4387
405.4387
676.3394
676.3394
0.099789 0.17284 0.0
-70.3055
141.2809
300.5774
413.7318
441.6539
628.5431
0.099789 0.17284 0.06261
-77.5075
136.8876
312.3354
403.5155
430.8918
618.7267
0.099789 0.17284 0.12522
-24.9114
146.734
343.5449
383.3579
402.9029
596.8214
0.099789 0.17284 0.18783
143.7743
195.4754
351.1403
367.9949
408.536
575.1945
0.099789 0.17284 0.25044
229.092
258.0555
333.3686
336.0393
469.2875
553.9379
0.099789 0.17284 -0.31305
285.3863
285.3863
313.0596
313.0596
521.1166
521.1166
0.099789 0.288066 0.0
125.8782
221.4683
393.1181
468.3783
500.9148
564.6375
0.099789 0.288066 0.06261
118.7655
223.2625
397.8632
464.307
486.1527
571.494
0.099789 0.288066 0.12522
121.4252
236.6107
400.1873
440.2986
480.0139
580.2735
0.099789 0.288066 0.18783
163.0321
269.2196
386.9518
402.9712
502.9706
582.7257
0.099789 0.288066 0.25044
225.5546
306.3694
353.1999
381.3955
533.4595
576.4368
0.099789 0.288066 -0.31305
284.7535
284.7535
359.2159
359.2159
559.7589
559.7589
0.099789 0.403293 0.0
258.7029
284.9639
447.8854
511.2837
530.0964
571.7956
0.099789 0.403293 0.06261
245.8198
286.118
444.1536
488.3385
538.7513
580.448
0.099789 0.403293 0.12522
225.1065
294.8696
425.9452
458.9168
550.5205
597.9046
0.099789 0.403293 0.18783
228.0755
320.3447
396.7283
438.7021
572.9418
613.5273
0.099789 0.403293 0.25044
263.157
340.3146
381.1909
423.2509
599.068
621.6372
0.099789 0.403293 -0.31305
309.039
309.039
403.9047
403.9047
617.3085
617.3085
0.099789 0.518519 0.0
318.0689
349.2056
476.5041
482.5259
566.5865
614.3463
0.099789 0.518519 0.06261
307.4237
340.6227
454.7182
484.694
568.5673
615.3749
0.099789 0.518519 0.12522
284.3408
334.327
420.032
473.6775
579.046
624.1271
0.099789 0.518519 0.18783
278.1208
354.4464
392.3142
460.1656
603.7112
641.5332
0.099789 0.518519 0.25044
304.2959
366.127
400.0936
450.0064
634.9452
656.501
0.099789 0.518519 -0.31305
340.7883
340.7883
432.6845
432.6845
655.8426
655.8426
0.199578 0.34568 0.0
214.8223
298.7275
414.6262
505.796
527.7828
549.0669
0.199578 0.34568 0.06261
206.7554
303.6214
422.8729
477.0722
546.901
550.506
0.199578 0.34568 0.12522
194.0311
317.3791
436.9612
437.6944
546.5242
574.6681
0.199578 0.34568 0.18783
199.2103
332.177
402.4227
441.9924
558.4224
590.9691
0.199578 0.34568 0.25044
231.2059
319.1697
397.3676
432.613
578.3588
597.7387
0.199578 0.34568 -0.31305
277.2782
277.2782
415.3225
415.3225
593.53
593.53
0.199578 0.460906 0.0
292.17
351.8732
449.2982
452.7387
537.5144
593.6792
0.199578 0.460906 0.06261
281.8018
357.0981
435.3285
464.8113
545.4336
590.9687
0.199578 0.460906 0.12522
261.8327
364.4021
415.9739
480.3506
562.3252
591.2438
0.199578 0.460906 0.18783
250.7968
350.8089
419.0431
484.9487
581.552
603.382
0.199578 0.460906 0.25044
260.3754
320.5419
440.0422
476.6267
602.6479
615.0648
0.199578 0.460906 -0.31305
287.3918
287.3918
460.9258
460.9258
615.7465
615.7465
0.199578 0.576133 0.0
333.7401
368.1394
415.9062
482.4462
530.0331
607.2164
0.199578 0.576133 0.06261
318.3891
380.2301
403.8927
492.1258
535.6401
604.4175
0.199578 0.576133 0.12522
293.0873
378.0888
401.1179
505.186
553.3801
603.629
0.199578 0.576133 0.18783
275.6896
349.3796
426.9754
505.3353
580.0582
613.2426
0.199578 0.576133 0.25044
276.8919
321.3954
455.084
495.6073
606.3855
623.5056
0.199578 0.576133 -0.31305
295.2191
295.2191
479.0352
479.0352
622.4596
622.4596
0.299367 0.518519 0.0
320.8031
380.3997
416.614
464.2729
502.2915
598.4941
0.299367 0.518519 0.06261
315.0125
370.7956
428.1137
478.0429
513.2064
594.211
0.299367 0.518519 0.12522
300.0375
350.5447
449.0435
507.3295
539.8241
584.3046
0.299367 0.518519 0.18783
280.8789
322.7717
471.8184
528.387
566.666
578.2407
0.299367 0.518519 0.25044
266.611
291.9328
493.3751
526.0051
583.5577
584.1753
0.299367 0.518519 -0.31305
269.4309
269.4309
511.7898
511.7898
588.8116
588.8116
P	=	3200.12	V	=	89.99984	E	=	-655.10132533
0.0 0.0 0.0
-0.0
0.0
0.0
391.5978
391.5978
714.9591
0.0 0.0 0.062604
-73.7471
-73.7471
74.2955
375.022
375.022
694.2153
0.0 0.0 0.125208
-99.3597
-99.3597
190.293
338.9957
338.9957
647.9186
0.0 0.0 0.187811
75.2649
75.2649
311.1332
311.1332
331.0454
607.3032
0.0 0.0 0.250415
200.4245
200.4245
297.1296
297.1296
457.2148
580.5593
0.0 0.0 -0.313019
269.2668
269.2668
269.2668
269.2668
540.2079
540.2079
0.0 0.115229 0.0
-64.8615
75.6875
188.7686
398.5683
412.3617
688.4158
0.0 0.115229 0.062604
-77.6057
45.9179
203.1902
384.3596
399.6571
671.4462
0.0 0.115229 0.125208
-38.8378
29.4389
257.5375
353.1575
370.1017
633.3093
0.0 0.115229 0.187811
131.0299
138.8991
327.314
340.9186
354.0822
598.1023
0.0 0.115229 0.250415
222.7003
227.2705
311.2635
317.8276
456.4965
570.9619
0.0 0.115229 -0.313019
283.224
283.224
285.7308
285.7308
530.592
530.592
0.0 0.230457 0.0
32.2562
159.8251
356.7348
419.1037
470.9068
625.4792
0.0 0.230457 0.062604
20.6162
156.6171
369.9432
408.7316
461.177
619.2612
0.0 0.230457 0.125208
79.7383
166.7016
385.4019
402.3612
434.8122
605.4232
0.0 0.230457 0.187811
165.3987
212.0351
363.6428
393.5818
450.5031
590.3775
0.0 0.230457 0.250415
243.0475
272.1923
346.0952
351.4715
499.596
572.0115
0.0 0.230457 -0.313019
303.6284
303.6284
319.3824
319.3824
542.6638
542.6638
0.0 0.345686 0.0
205.1347
239.2989
451.1705
486.5236
549.6993
562.7092
0.0 0.345686 0.062604
197.1522
235.8545
440.9347
491.7232
521.2213
585.9545
0.0 0.345686 0.125208
190.8563
240.4479
418.501
467.1682
524.6389
605.3669
0.0 0.345686 0.187811
214.6368
273.348
399.135
422.4953
552.5649
615.5104
0.0 0.345686 0.250415
265.7759
322.9966
375.2407
385.3884
581.3123
615.3705
0.0 0.345686 -0.313019
323.0643
323.0643
363.5107
363.5107
603.6843
603.6843
0.0 0.460915 0.0
293.6336
331.0941
484.2207
521.7945
570.0358
614.6536
0.0 0.460915 0.062604
285.4284
316.6228
470.5554
504.2206
574.3204
621.4524
0.0 0.460915 0.125208
280.2723
289.8563
441.9329
468.6691
587.4641
637.021
0.0 0.460915 0.187811
287.4837
308.4693
421.8301
434.7792
612.9207
655.2845
0.0 0.460915 0.250415
321.959
359.3218
404.7728
414.4651
643.9642
668.1276
0.0 0.460915 -0.313019
367.9088
367.9088
398.8861
398.8861
665.4584
665.4584
0.0 -0.576144 0.0
312.4072
386.7236
498.7054
503.0549
599.7719
638.7704
0.0 -0.576144 0.062604
301.8644
368.1403
482.9724
490.8899
599.6173
641.5468
0.0 -0.576144 0.125208
292.326
331.6237
450.4036
463.5415
606.7487
652.9959
0.0 -0.576144 0.187811
319.552
320.3921
429.2673
439.2443
631.3087
673.0675
0.0 -0.576144 0.250415
350.6315
372.4691
420.5415
424.9562
666.0241
690.5985
0.0 -0.576144 -0.313019
392.328
392.328
412.3388
412.3388
690.0648
690.0648
0.099791 0.172843 0.0
-62.2736
143.0722
306.711
419.3381
447.9182
643.3253
0.099791 0.172843 0.062604
-68.4892
140.4615
319.5313
409.8106
437.8789
633.5164
0.099791 0.172843 0.125208
36.3778
153.0592
352.0277
391.3351
411.1931
611.4224
0.099791 0.172843 0.187811
151.9823
201.4059
358.2756
376.4714
418.8394
589.0404
0.099791 0.172843 0.250415
234.6929
262.5617
340.4688
341.8699
479.9222
566.4917
0.099791 0.172843 -0.313019
290.4086
290.4086
318.0485
318.0485
532.4304
532.4304
0.099791 0.288072 0.0
134.6723
225.5178
400.3748
477.541
510.5733
578.6059
0.099791 0.288072 0.062604
128.3596
228.294
405.5462
473.9738
496.502
585.275
0.099791 0.288072 0.125208
131.9566
243.2148
408.2631
450.5976
491.4392
594.0673
0.099791 0.288072 0.187811
172.0595
275.9598
395.212
412.3226
514.935
596.3025
0.099791 0.288072 0.250415
232.8566
312.3384
361.4176
388.4549
545.4514
589.3507
0.099791 0.288072 -0.313019
291.494
291.494
365.5756
365.5756
571.9977
571.9977
0.099791 0.4033 0.0
265.6894
290.4829
455.7348
523.6048
540.8347
583.8271
0.099791 0.4033 0.062604
252.9401
292.3826
452.2544
499.7876
550.5391
593.2344
0.099791 0.4033 0.125208
232.9052
302.1377
434.7522
469.5705
563.2257
611.6535
0.099791 0.4033 0.187811
235.9206
327.7303
405.835
448.1268
586.019
627.4752
0.099791 0.4033 0.250415
270.2613
347.4257
389.3583
431.4467
612.0316
635.127
0.099791 0.4033 -0.313019
315.9681
315.9681
411.4081
411.4081
630.321
630.321
0.099791 0.518529 0.0
323.9703
355.8463
487.3681
490.5109
578.029
627.2822
0.099791 0.518529 0.062604
313.6866
347.7367
464.1177
494.2506
580.5904
628.8642
0.099791 0.518529 0.125208
291.4615
342.2297
429.2204
483.5145
592.0915
638.497
0.099791 0.518529 0.187811
285.4516
362.4862
400.9837
469.697
617.2215
656.0414
0.099791 0.518529 0.250415
310.9212
373.4112
408.1559
458.7279
648.3616
670.4656
0.099791 0.518529 -0.313019
347.2561
347.2561
440.765
440.765
669.2998
669.2998
0.199582 0.345686 0.0
222.7637
304.9303
421.8753
518.4474
537.8217
560.4886
0.199582 0.345686 0.062604
214.8393
310.4262
430.9106
488.2335
558.7363
562.575
0.199582 0.345686 0.125208
202.5942
325.0776
446.8512
447.7909
559.1384
587.9216
0.199582 0.345686 0.187811
207.5317
339.8333
412.6587
451.2974
571.3195
604.5492
0.199582 0.345686 0.250415
238.4401
326.5004
406.0303
441.183
591.046
610.9174
0.199582 0.345686 -0.313019
284.1378
284.1378
423.3186
423.3186
606.2315
606.2315
0.199582 0.460915 0.0
299.9853
358.659
460.3533
460.3809
547.4574
605.5431
0.199582 0.460915 0.062604
289.625
364.6736
445.402
474.0275
556.5489
603.3771
0.199582 0.460915 0.125208
270.038
373.0386
426.1822
490.6572
575.0481
604.7133
0.199582 0.460915 0.187811
258.7826
359.4808
428.9102
495.5114
594.8397
617.2166
0.199582 0.460915 0.250415
267.2228
328.0038
449.2461
486.4618
615.6717
628.4302
0.199582 0.460915 -0.313019
293.8318
293.8318
470.015
470.015
628.65
628.65
0.199582 0.576144 0.0
341.54
374.7401
426.2195
490.4752
539.8489
619.0212
0.199582 0.576144 0.062604
326.0851
388.026
413.6834
501.4823
546.4436
616.8774
0.199582 0.576144 0.125208
301.3393
387.6559
410.3699
515.954
565.9136
617.3152
0.199582 0.576144 0.187811
283.7643
358.2759
436.7286
516.3554
593.3633
627.2748
0.199582 0.576144 0.250415
283.667
328.7054
464.5286
505.8684
619.4775
636.9481
0.199582 0.576144 -0.313019
301.4099
301.4099
488.4973
488.4973
635.4007
635.4007
0.299373 0.518529 0.0
329.5947
390.353
424.0187
472.2053
511.0983
609.3378
0.299373 0.518529 0.062604
323.7496
380.3031
436.7527
487.4372
523.4533
605.6995
0.299373 0.518529 0.125208
309.0413
360.1379
459.2371
518.8633
552.2722
596.9622
0.299373 0.518529 0.187811
289.5073
331.8555
482.5349
540.4915
579.9495
591.344
0.299373 0.518529 0.250415
273.7165
299.3654
503.634
537.178
596.4668
596.8991
0.299373 0.518529 -0.313019
275.7057
275.7057
521.9941
521.9941
601.2864
601.2864
P	=	3399.98	V	=	88.78667	E	=	-655.07411315
0.0 0.0 0.0
0.0
0.0
0.0
392.2036
392.2036
729.5397
0.0 0.0 0.062597
-69.809
-69.809
81.6676
377.3038
377.3038
709.1673
0.0 0.0 0.125195
-91.6991
-91.6991
199.7394
344.8469
344.8469
663.2608
0.0 0.0 0.187792
84.8206
84.8207
318.7111
318.7111
340.019
621.5971
0.0 0.0 0.25039
203.1193
203.1193
302.7767
302.7768
465.7062
592.2729
0.0 0.0 -0.312987
272.2086
272.2086
272.2086
272.2086
549.5548
549.5548
0.0 0.115233 0.0
-61.5027
76.5071
192.889
401.0136
415.2079
703.0154
0.0 0.115233 0.062597
-70.1924
53.9788
209.7214
388.2528
404.0018
686.3687
0.0 0.115233 0.125195
27.79
53.0293
267.2055
359.9561
377.4138
648.5518
0.0 0.115233 0.187792
139.0444
147.6869
335.1607
349.3193
364.1047
612.4273
0.0 0.115233 0.25039
226.3906
231.5588
317.0659
324.194
466.0334
583.0887
0.0 0.115233 -0.312987
286.6646
286.6646
289.6839
289.6839
540.7322
540.7322
0.0 0.230466 0.0
50.9294
162.2939
364.333
424.9005
478.2076
639.7857
0.0 0.230466 0.062597
50.5338
161.6686
378.9358
415.486
469.5514
633.7892
0.0 0.230466 0.125195
98.3847
175.5972
393.8109
413.3559
445.1349
620.1965
0.0 0.230466 0.187792
176.8112
220.1067
372.0186
403.6754
462.3577
604.6009
0.0 0.230466 0.25039
250.3926
277.5164
352.3742
359.5623
510.9397
584.7908
0.0 0.230466 -0.312987
309.9634
309.9634
323.9352
323.9352
554.1655
554.1655
0.0 0.345699 0.0
212.2196
243.4696
458.8026
496.4795
560.4924
575.7797
0.0 0.345699 0.062597
205.6105
241.5619
449.1484
502.4481
533.0524
599.1169
0.0 0.345699 0.125195
201.8284
248.6717
427.5906
478.7808
537.5359
619.5217
0.0 0.345699 0.187792
225.4121
281.5002
407.7824
433.5317
565.7784
629.6883
0.0 0.345699 0.25039
274.3639
329.3431
384.4428
392.2556
593.9271
628.5907
0.0 0.345699 -0.312987
330.8983
330.8983
369.1559
369.1559
616.1042
616.1042
0.0 0.460933 0.0
298.7462
337.2483
492.02
533.0456
581.2072
627.1949
0.0 0.460933 0.062597
291.5239
323.6489
478.7571
515.4592
586.265
634.811
0.0 0.460933 0.125195
288.1075
298.6425
450.7593
479.993
600.6488
651.5453
0.0 0.460933 0.187792
296.5945
316.3959
430.3446
445.3348
626.4848
669.8981
0.0 0.460933 0.25039
329.7434
366.1095
413.5234
421.7061
657.1114
681.8755
0.0 0.460933 -0.312987
375.3021
375.3021
405.2545
405.2545
678.4904
678.4904
0.0 -0.576166 0.0
317.7476
392.5342
506.3602
513.5341
611.2908
651.8014
0.0 -0.576166 0.062597
308.0131
374.7825
490.9704
501.5456
611.7293
655.2644
0.0 -0.576166 0.125195
299.9627
339.9214
458.9683
474.388
619.948
667.7585
0.0 -0.576166 0.187792
327.3386
329.0252
437.6371
449.3213
644.8989
687.8749
0.0 -0.576166 0.25039
358.02
379.3785
428.8318
432.3005
679.298
704.549
0.0 -0.576166 -0.312987
399.323
399.323
418.9542
418.9542
703.3007
703.3007
0.099795 0.17285 0.0
-51.6792
145.4953
312.8903
424.933
453.7208
657.7874
0.099795 0.17285 0.062597
-53.881
145.766
327.2837
416.5788
444.8776
648.2287
0.099795 0.17285 0.125195
65.477
162.3841
361.644
400.6879
420.3435
626.3796
0.099795 0.17285 0.187792
162.9056
209.4853
366.7493
385.9994
430.1808
603.3234
0.099795 0.17285 0.25039
240.9963
267.6374
347.9597
348.2764
490.8199
579.1367
0.099795 0.17285 -0.312987
295.3406
295.3406
323.0115
323.0115
543.6184
543.6184
0.099795 0.288083 0.0
143.645
229.8165
407.5587
486.6983
519.9671
592.2792
0.099795 0.288083 0.062597
139.2669
234.3874
413.677
483.9449
507.0832
599.054
0.099795 0.288083 0.125195
145.6387
251.9914
417.6586
461.6918
503.9073
608.3328
0.099795 0.288083 0.187792
183.7854
284.5408
404.6812
422.8231
527.7986
610.3996
0.099795 0.288083 0.25039
241.0574
318.9199
369.9846
396.0987
557.6797
602.3736
0.099795 0.288083 -0.312987
298.2594
298.2594
371.9179
371.9179
584.094
584.094
0.099795 0.403316 0.0
272.7642
295.9274
463.5635
535.6281
551.2329
595.6421
0.099795 0.403316 0.062597
260.7451
299.2422
460.786
511.2505
562.3076
606.0685
0.099795 0.403316 0.125195
242.5602
310.9715
444.5757
480.9975
576.4159
625.8178
0.099795 0.403316 0.187792
245.6537
336.5617
415.813
458.5815
599.5817
641.7929
0.099795 0.403316 0.25039
278.0764
355.0073
397.7611
440.0384
625.0122
648.5711
0.099795 0.403316 -0.312987
322.9101
322.9101
418.799
418.799
643.0563
643.0563
0.099795 0.518549 0.0
329.7475
362.3525
497.9601
498.3307
588.9975
639.9053
0.099795 0.518549 0.062597
320.3259
355.1622
473.5197
504.0326
592.3519
642.2685
0.099795 0.518549 0.125195
299.8095
351.2059
439.0737
494.0954
605.227
653.1133
0.099795 0.518549 0.187792
294.0535
371.5146
410.376
480.0372
630.8242
670.7553
0.099795 0.518549 0.25039
317.9774
380.9423
416.3524
467.6917
661.552
684.2723
0.099795 0.518549 -0.312987
353.6341
353.6341
448.6481
448.6481
682.3649
682.3649
0.19959 0.345699 0.0
230.9745
311.1814
429.2127
530.8379
547.8501
571.8208
0.19959 0.345699 0.062597
223.9177
317.923
439.4719
499.5468
570.8448
574.7951
0.19959 0.345699 0.125195
213.4764
334.4288
457.1831
459.393
572.5934
601.6434
0.19959 0.345699 0.187792
218.1956
349.0711
423.7128
461.7484
585.023
618.5447
0.19959 0.345699 0.25039
246.6567
334.4385
414.977
450.1656
603.9689
624.1108
0.19959 0.345699 -0.312987
291.1537
291.1537
431.2203
431.2203
618.7727
618.7727
0.19959 0.460933 0.0
307.9806
365.5831
468.2048
471.2301
557.5754
617.3059
0.19959 0.460933 0.062597
298.1302
372.843
455.6913
483.7299
567.937
615.9834
0.19959 0.460933 0.125195
279.8642
382.9355
437.2193
501.9034
588.2515
618.7852
0.19959 0.460933 0.187792
268.5145
369.3384
439.5995
506.9955
608.5827
631.5083
0.19959 0.460933 0.25039
274.9227
336.02
458.6452
496.6145
628.7481
641.8137
0.19959 0.460933 -0.312987
300.4873
300.4873
478.981
478.981
641.3506
641.3506
0.19959 0.576166 0.0
349.4154
381.6112
436.4447
498.7813
549.7525
630.7749
0.19959 0.576166 0.062597
334.305
396.4439
423.7548
511.3273
557.4651
629.5435
0.19959 0.576166 0.125195
310.9385
398.1382
420.6745
527.589
578.8326
631.5665
0.19959 0.576166 0.187792
293.3219
368.1839
447.3002
528.2465
606.9224
641.7868
0.19959 0.576166 0.25039
291.1994
336.5301
474.1282
516.452
632.4708
650.4484
0.19959 0.576166 -0.312987
307.8184
307.8184
497.8462
497.8462
648.1077
648.1077
0.299384 0.518549 0.0
338.5932
400.3352
431.9339
480.5157
520.4055
620.3124
0.299384 0.518549 0.062597
333.1326
390.2564
446.1218
497.3973
534.2712
617.6148
0.299384 0.518549 0.125195
319.4536
370.8617
470.3803
531.2113
565.3622
610.5213
0.299384 0.518549 0.187792
299.6842
342.1931
493.902
553.3702
593.6854
605.258
0.299384 0.518549 0.25039
281.7516
307.5606
513.9716
548.6973
609.4268
609.8482
0.299384 0.518549 -0.312987
282.4199
282.4199
532.107
532.107
613.646
613.646
P	=	3599.95	V	=	87.63847	E	=	-655.04679764
0.0 0.0 0.0
-0.0
0.0
0.0
396.3255
396.3255
743.7489
0.0 0.0 0.06259
-64.8467
-64.8467
88.5168
382.5484
382.5484
723.8103
0.0 0.0 0.12518
-81.057
-81.057
208.9184
352.2531
352.2531
678.4676
0.0 0.0 0.187769
96.8892
96.8892
326.5526
326.5526
348.9971
635.99
0.0 0.0 0.250359
207.5178
207.5178
308.5112
308.5112
474.3803
604.2573
0.0 0.0 -0.312949
275.9157
275.9157
275.9157
275.9157
559.1879
559.1879
0.0 0.115238 0.0
-57.3317
79.1463
197.6675
405.7572
420.1543
717.2522
0.0 0.115238 0.06259
-60.6351
63.88
216.8772
394.162
410.1983
701.0006
0.0 0.115238 0.12518
58.7765
72.6845
277.2669
368.0246
385.9315
663.6751
0.0 0.115238 0.187769
148.7608
157.999
343.5365
358.307
374.3306
626.7976
0.0 0.115238 0.250359
231.2546
237.1104
323.1908
331.0077
475.6986
595.3354
0.0 0.115238 -0.312949
290.7167
290.7167
294.3808
294.3808
550.993
550.993
0.0 0.230476 0.0
65.5196
165.834
372.2924
431.2538
485.7278
653.7865
0.0 0.230476 0.06259
70.5114
168.0842
388.4329
422.9502
478.3295
648.109
0.0 0.230476 0.12518
116.5409
186.0112
403.1651
424.9902
456.1451
634.9505
0.0 0.230476 0.187769
189.4083
229.3652
381.2987
414.6198
474.5607
618.8763
0.0 0.230476 0.250359
258.6215
283.4376
359.2216
368.3267
522.2995
597.5177
0.0 0.230476 -0.312949
316.8757
316.8757
328.8214
328.8214
565.5322
565.5322
0.0 0.345714 0.0
219.2154
247.438
466.5075
506.0827
571.1985
588.6653
0.0 0.345714 0.06259
214.3658
247.6525
457.7498
513.2658
544.8027
612.2801
0.0 0.345714 0.12518
213.797
258.1749
437.6209
490.9965
550.6611
633.885
0.0 0.345714 0.187769
237.3357
290.9138
417.4483
445.1754
579.3359
644.0777
0.0 0.345714 0.250359
283.5613
336.2342
393.9576
399.6473
606.6191
641.8137
0.0 0.345714 -0.312949
338.9147
338.9147
374.9728
374.9728
628.411
628.411
0.0 0.460951 0.0
303.7722
343.1797
499.777
544.1859
592.1942
639.5919
0.0 0.460951 0.06259
298.0947
330.803
487.2625
526.851
598.0968
648.1584
0.0 0.460951 0.12518
297.3498
308.2123
460.5121
491.7738
614.0157
666.2417
0.0 0.460951 0.187769
306.6087
325.7042
439.8793
456.3009
640.3532
684.702
0.0 0.460951 0.250359
337.8955
373.4781
422.3614
429.4342
670.4093
695.6835
0.0 0.460951 -0.312949
382.6579
382.6579
411.768
411.768
691.5273
691.5273
0.0 -0.576189 0.0
323.4148
398.1232
513.8401
523.8786
622.9083
664.5976
0.0 -0.576189 0.06259
314.9724
381.5508
499.1566
512.2642
623.988
668.8382
0.0 -0.576189 0.12518
309.1765
348.9467
468.4015
485.6049
633.3925
682.5716
0.0 -0.576189 0.187769
336.5267
338.4364
447.0348
459.7634
658.7442
702.8342
0.0 -0.576189 0.250359
365.6634
386.8454
437.1832
440.1612
692.7152
718.603
0.0 -0.576189 -0.312949
406.2282
406.2282
425.7236
425.7236
716.5984
716.5984
0.099799 0.172857 0.0
-36.3631
149.2063
319.6814
431.3081
460.2985
671.926
0.099799 0.172857 0.06259
-29.1872
152.5334
335.7332
424.1901
452.7214
662.7067
0.099799 0.172857 0.12518
88.2084
173.1164
371.9723
410.9052
430.413
641.279
0.099799 0.172857 0.187769
175.099
218.6814
376.0116
396.3791
441.8963
617.6317
0.099799 0.172857 0.250359
248.329
273.3397
355.2013
356.1545
501.7721
591.7479
0.099799 0.172857 -0.312949
300.8585
300.8585
328.457
328.457
554.7248
554.7248
0.099799 0.288095 0.0
152.5091
233.9877
414.9064
495.9852
529.6407
605.7581
0.099799 0.288095 0.06259
150.3727
240.8221
422.2776
494.3463
517.9349
612.7959
0.099799 0.288095 0.12518
160.1753
261.7539
427.9674
473.5876
516.7833
622.7546
0.099799 0.288095 0.187769
196.8174
294.0744
414.9971
434.1373
541.0867
624.6514
0.099799 0.288095 0.250359
250.1601
325.9269
379.0588
404.2008
570.0229
615.3754
0.099799 0.288095 -0.312949
305.4534
305.4534
378.4341
378.4341
596.0906
596.0906
0.099799 0.403332 0.0
279.7099
300.9758
471.9166
547.624
562.1944
607.4664
0.099799 0.403332 0.06259
268.7538
306.2109
470.0807
523.2086
574.1516
619.141
0.099799 0.403332 0.12518
253.1381
320.6935
455.3857
493.1314
589.8494
640.3089
0.099799 0.403332 0.187769
256.5613
346.4194
426.497
469.696
613.519
656.3311
0.099799 0.403332 0.250359
286.6404
363.0814
406.4973
448.9001
638.209
662.0694
0.099799 0.403332 -0.312949
330.1775
330.1775
426.251
426.251
655.8235
655.8235
0.099799 0.51857 0.0
335.9877
368.7334
506.9348
508.5749
600.9267
652.4731
0.099799 0.51857 0.06259
327.6107
362.9198
483.4667
514.3917
604.8452
655.6845
0.099799 0.51857 0.12518
309.1602
361.1813
449.7289
505.3676
618.7803
667.8542
0.099799 0.51857 0.187769
303.7078
381.5138
420.4508
490.9587
644.6725
685.6545
0.099799 0.51857 0.250359
325.6913
388.9311
424.9216
476.8924
674.8969
698.2464
0.099799 0.51857 -0.312949
360.3581
360.3581
456.6
456.6
695.5625
695.5625
0.199598 0.345714 0.0
239.1117
316.5905
437.6986
543.2825
559.8494
582.812
0.199598 0.345714 0.06259
233.2484
325.0515
449.2135
511.8
582.7969
587.9747
0.199598 0.345714 0.12518
225.2506
344.2312
468.5797
471.9527
586.2892
615.8907
0.199598 0.345714 0.187769
230.1062
359.0806
435.4435
472.8171
599.2336
632.731
0.199598 0.345714 0.250359
255.8854
342.9225
424.2801
459.2932
617.2746
637.3113
0.199598 0.345714 -0.312949
298.7578
298.7578
439.1601
439.1601
631.4135
631.4135
0.199598 0.460951 0.0
316.0282
373.0251
478.1045
482.3967
570.6475
629.2674
0.199598 0.460951 0.06259
307.0065
381.509
467.0349
494.9257
581.2846
628.8135
0.199598 0.460951 0.12518
290.476
393.4037
449.3437
514.1269
602.1301
633.1588
0.199598 0.460951 0.187769
279.267
379.9067
450.9491
518.8631
622.6337
646.0289
0.199598 0.460951 0.250359
283.6929
344.7823
468.4256
506.862
642.1419
655.3871
0.199598 0.460951 -0.312949
308.0506
308.0506
488.0958
488.0958
654.3204
654.3204
0.199598 0.576189 0.0
357.4774
390.2027
447.009
509.5905
562.4665
643.2213
0.199598 0.576189 0.06259
343.0719
406.2986
434.5966
522.8884
570.5611
642.7382
0.199598 0.576189 0.12518
321.3217
409.4541
432.0499
540.0636
592.5624
646.0739
0.199598 0.576189 0.187769
303.8085
378.79
458.5255
540.4733
620.6445
656.5191
0.199598 0.576189 0.250359
299.8239
345.1847
484.1331
527.225
645.6155
664.2739
0.199598 0.576189 -0.312949
315.288
315.288
507.4546
507.4546
661.1294
661.1294
0.299397 0.51857 0.0
347.9789
410.8426
442.5702
491.7944
533.3976
632.659
0.299397 0.51857 0.06259
343.1957
401.0885
457.6698
509.4443
547.5736
630.6015
0.299397 0.51857 0.12518
330.6601
382.4224
482.7038
544.3866
579.2518
624.591
0.299397 0.51857 0.187769
310.7248
353.2851
505.7062
566.456
607.5148
619.4914
0.299397 0.51857 0.250359
291.0844
316.8918
524.6675
560.4442
622.5187
623.2213
0.299397 0.51857 -0.312949
290.6518
290.6518
542.6293
542.6293
626.3806
626.3806
P	=	3799.89	V	=	86.5488	E	=	-655.01939324
0.0 0.0 0.0
-0.0
-0.0
-0.0
405.1957
405.1957
757.6228
0.0 0.0 0.062585
-60.3849
-60.3849
93.976
391.3886
391.3886
737.9566
0.0 0.0 0.125169
-69.8886
-69.8886
216.9082
360.6198
360.6198
692.9488
0.0 0.0 0.187754
108.5341
108.5341
333.4364
333.4364
357.6808
649.862
0.0 0.0 0.250338
213.2285
213.2285
313.5373
313.5373
483.513
616.3745
0.0 0.0 -0.312923
280.228
280.228
280.228
280.228
569.4365
569.4365
0.0 0.115241 0.0
-52.6198
82.6287
202.826
413.5989
428.1081
731.1426
0.0 0.115241 0.062585
-141.7787
72.6477
253.4834
402.3641
417.5049
718.1919
0.0 0.115241 0.125169
87.4941
195.288
218.8614
376.5917
402.387
675.2338
0.0 0.115241 0.187754
-167.8286
158.1127
316.3894
351.1696
454.2861
665.0219
0.0 0.115241 0.250338
-331.5649
-183.2132
236.7455
328.7818
637.8481
717.3304
0.0 0.115241 -0.312923
-348.4324
-348.4324
295.083
295.083
725.5956
725.5956
0.0 0.230482 0.0
77.6032
169.5665
380.3419
438.0544
493.6844
667.4303
0.0 0.230482 0.062585
118.0878
174.3801
385.0636
430.6704
495.2145
658.6564
0.0 0.230482 0.125169
178.8916
195.7595
412.36
419.5498
478.8766
639.9821
0.0 0.230482 0.187754
95.4946
238.1254
385.2309
390.1708
521.1736
654.6937
0.0 0.230482 0.250338
-190.4333
186.7229
289.1697
365.746
629.2296
689.3062
0.0 0.230482 -0.312923
-192.7883
-192.7883
333.5441
333.5441
688.9468
688.9468
0.0 0.345723 0.0
225.9177
250.7415
473.6542
515.1226
581.6123
601.2149
0.0 0.345723 0.062585
191.8254
253.2167
465.8926
495.2984
572.1571
643.5671
0.0 0.345723 0.125169
195.8214
267.3288
447.3761
476.8908
581.1627
660.7414
0.0 0.345723 0.187754
275.4287
300.0724
426.9276
479.8946
576.8519
644.1404
0.0 0.345723 0.250338
328.3473
342.8279
406.7896
429.6946
604.1922
634.1293
0.0 0.345723 -0.312923
364.3142
364.3142
380.4515
380.4515
630.5231
630.5231
0.0 0.460964 0.0
308.285
348.8631
507.0975
555.0
602.6598
651.7067
0.0 0.460964 0.062585
304.337
310.0935
494.9094
495.4623
643.4602
675.717
0.0 0.460964 0.125169
295.0033
306.5517
470.1984
475.8106
646.9564
691.1292
0.0 0.460964 0.187754
322.0987
335.0364
449.4271
473.0147
649.305
696.2673
0.0 0.460964 0.250338
277.1695
365.1125
380.7064
437.0386
719.4818
739.8691
0.0 0.460964 -0.312923
259.5533
259.5533
418.0389
418.0389
762.0233
762.0233
0.0 -0.576205 0.0
328.9193
403.5176
520.9964
533.8539
634.2259
677.1057
0.0 -0.576205 0.062585
321.8997
388.0394
507.1484
522.6315
635.8485
681.9884
0.0 -0.576205 0.125169
318.5372
357.4279
477.88
496.4222
646.3388
696.8331
0.0 -0.576205 0.187754
345.8314
347.115
456.5539
469.739
672.2413
717.3907
0.0 -0.576205 0.250338
372.6713
394.2351
445.069
447.9954
706.0725
732.5552
0.0 -0.576205 -0.312923
412.6309
412.6309
432.3301
432.3301
729.9596
729.9596
0.099802 0.172861 0.0
7.9339
153.3577
326.7642
438.6282
467.9717
685.7107
0.099802 0.172861 0.062585
20.14
124.646
344.2433
426.4869
471.2635
672.8035
0.099802 0.172861 0.125169
144.6338
182.281
348.1011
414.5198
465.292
641.6928
0.099802 0.172861 0.187754
-141.8129
266.2693
340.8879
415.2896
501.0213
665.8869
0.099802 0.172861 0.250338
-336.6935
-213.1743
388.8518
443.936
655.9446
724.1781
0.099802 0.172861 -0.312923
-369.0558
-369.0558
444.948
444.948
734.0365
734.0365
0.099802 0.288102 0.0
160.9085
237.6922
421.8861
505.0705
539.2602
618.91
0.099802 0.288102 0.062585
-307.1054
-184.8465
443.0448
538.7433
571.7099
658.4951
0.099802 0.288102 0.125169
-224.0161
-53.111
406.9086
504.2125
570.1945
643.5552
0.099802 0.288102 0.187754
-116.5987
234.3141
453.7516
485.3146
652.5777
726.6405
0.099802 0.288102 0.250338
-398.2751
-353.608
354.3559
370.2433
991.2968
1011.0099
0.099802 0.288102 -0.312923
-465.7043
-465.7043
299.1637
299.1637
1121.0775
1121.0775
0.099802 0.403343 0.0
286.4023
305.3744
480.1155
559.3514
573.0088
619.0842
0.099802 0.403343 0.062585
-483.5882
-391.3245
532.6778
592.5795
678.295
718.4446
0.099802 0.403343 0.125169
-405.3006
-293.3644
472.9542
542.1409
648.6805
682.7431
0.099802 0.403343 0.187754
-232.0851
86.5882
536.6017
568.3132
828.4297
869.6088
0.099802 0.403343 0.250338
-569.7854
-541.1883
482.6608
500.3283
1332.6426
1347.338
0.099802 0.403343 -0.312923
-651.8049
-651.8049
463.5545
463.5545
1518.2496
1518.2496
0.099802 0.518584 0.0
342.1845
374.9434
515.8399
518.9223
613.0756
664.876
0.099802 0.518584 0.062585
-536.3845
-411.1499
595.4096
625.5328
663.5284
741.0899
0.099802 0.518584 0.125169
-462.1191
-318.0086
507.875
579.0502
624.0948
688.9125
0.099802 0.518584 0.187754
-260.4548
105.4567
610.6082
654.6404
898.416
944.2981
0.099802 0.518584 0.250338
-581.4017
-542.459
677.361
696.7541
1469.6773
1487.3961
0.099802 0.518584 -0.312923
-648.3628
-648.3628
710.7443
710.7443
1680.9442
1680.9442
0.199603 0.345723 0.0
246.9665
321.2706
446.3225
555.5064
572.5215
593.3683
0.199603 0.345723 0.062585
-622.1754
-571.3517
534.8187
583.6618
724.4464
730.1271
0.199603 0.345723 0.125169
-550.3288
-488.6232
476.1738
534.1767
659.4292
668.529
0.199603 0.345723 0.187754
-152.935
125.0591
502.5286
523.3791
968.3285
1002.6778
0.199603 0.345723 0.250338
-408.6766
-393.4169
293.3308
297.2287
1627.1303
1638.4729
0.199603 0.345723 -0.312923
-444.6861
-444.6861
69.7824
69.7824
1863.6013
1863.6013
0.199603 0.460964 0.0
323.9361
380.5968
489.0656
493.459
585.1202
641.2573
0.199603 0.460964 0.062585
-767.7768
-726.5218
574.5746
595.4317
723.7826
761.5006
0.199603 0.460964 0.125169
-718.9811
-669.3467
518.2776
556.4463
588.0924
656.96
0.199603 0.460964 0.187754
160.5814
252.338
602.1224
647.6193
1187.1356
1212.3723
0.199603 0.460964 0.250338
-86.8005
119.6321
681.526
703.3473
2057.2044
2066.2043
0.199603 0.460964 -0.312923
162.4904
162.4904
732.8867
732.8867
2369.7706
2369.7706
0.199603 0.576205 0.0
365.5077
399.6601
457.4828
521.8993
576.6471
656.0687
0.199603 0.576205 0.062585
-795.3212
-738.8128
526.7286
612.5035
688.3559
752.2169
0.199603 0.576205 0.125169
-763.6541
-707.603
501.7317
534.9975
562.4408
619.3172
0.199603 0.576205 0.187754
233.6032
319.7759
670.4234
724.7054
1256.451
1281.0748
0.199603 0.576205 0.250338
277.6161
316.4368
885.7223
908.0628
2199.798
2208.4503
0.199603 0.576205 -0.312923
376.1482
376.1482
982.981
982.981
2540.2086
2540.2086
0.299405 0.518584 0.0
357.3794
421.387
454.7308
504.7889
548.4761
645.9492
0.299405 0.518584 0.062585
-855.7964
-839.5247
447.285
582.1035
702.2109
705.9058
0.299405 0.518584 0.125169
-858.023
-837.8532
423.1079
522.6285
537.7767
559.2432
0.299405 0.518584 0.187754
412.9565
423.7339
695.905
759.4776
1399.8795
1410.1571
0.299405 0.518584 0.250338
594.9098
598.9271
1003.7841
1027.8305
2483.4609
2487.0616
0.299405 0.518584 -0.312923
696.3353
696.3353
1136.5348
1136.5348
2873.8479
2873.8479
P	=	3999.98	V	=	85.5122	E	=	-654.99191299
0.0 0.0 0.0
-0.0
-0.0
0.0
415.9398
415.9398
771.0036
0.0 0.0 0.06258
-57.3417
-57.3417
97.4941
401.4323
401.4323
751.4271
0.0 0.0 0.12516
-60.5655
-60.5655
222.7897
368.7563
368.7563
706.4807
0.0 0.0 0.18774
117.6684
117.6684
339.2671
339.2671
365.1788
662.9421
0.0 0.0 0.250319
218.9791
218.9791
317.9595
317.9595
492.4326
628.2883
0.0 0.0 -0.312899
284.7073
284.7073
284.7073
284.7073
579.8396
579.8396
0.0 0.115243 0.0
-48.322
84.4497
207.076
422.8094
437.4358
744.5424
0.0 0.115243 0.06258
-41.8129
78.0135
229.8074
411.3694
427.8041
728.6405
0.0 0.115243 0.12516
88.3515
97.4238
294.6311
384.7725
403.498
691.6557
0.0 0.115243 0.18774
165.8387
176.1494
357.7396
373.8181
393.0863
653.6896
0.0 0.115243 0.250319
242.0476
249.5461
333.6581
343.0758
495.1716
619.4898
0.0 0.115243 -0.312899
299.3572
299.3572
304.6512
304.6512
572.2445
572.2445
0.0 0.230487 0.0
87.143
171.9276
387.5209
444.8684
501.6761
680.5432
0.0 0.230487 0.06258
96.4404
179.0446
406.3451
438.1399
496.0584
675.2117
0.0 0.230487 0.12516
142.8056
203.6357
420.7739
446.5246
476.9064
662.4819
0.0 0.230487 0.18774
210.8558
245.5847
398.0213
434.5819
497.3751
645.5929
0.0 0.230487 0.250319
274.5979
294.2578
371.4805
384.7833
544.0976
621.8743
0.0 0.230487 -0.312899
330.7142
330.7142
337.7584
337.7584
587.6703
587.6703
0.0 0.34573 0.0
232.3318
253.6332
479.7296
523.747
591.0976
613.149
0.0 0.34573 0.06258
229.9481
258.0941
472.9408
533.1165
566.8678
636.9907
0.0 0.34573 0.12516
233.9852
275.2776
456.0364
513.4016
575.2622
660.6944
0.0 0.34573 0.18774
257.7648
307.9951
435.4745
466.5414
604.8814
671.132
0.0 0.34573 0.250319
300.2093
348.543
411.619
413.246
630.8532
667.0487
0.0 0.34573 -0.312899
353.9173
353.9173
385.2947
385.2947
652.0979
652.0979
0.0 0.460973 0.0
312.5532
354.5507
513.4462
565.224
612.6643
663.0983
0.0 0.460973 0.06258
310.0668
344.0504
502.6388
548.1995
620.0746
673.2272
0.0 0.460973 0.12516
314.7229
324.9995
478.8129
513.4763
638.8149
693.6853
0.0 0.460973 0.18774
323.7849
343.2736
458.0628
476.2499
666.4923
712.7112
0.0 0.460973 0.250319
352.0988
387.1877
438.3768
444.0277
696.1649
722.4554
0.0 0.460973 -0.312899
395.8378
395.8378
423.7924
423.7924
717.1429
717.1429
0.0 -0.576216 0.0
334.0263
408.8957
527.5031
543.3316
644.9617
689.1816
0.0 -0.576216 0.06258
328.1928
394.1843
514.3712
532.3441
646.9428
694.5375
0.0 -0.576216 0.12516
326.8461
364.868
486.3839
506.2785
658.2495
710.2706
0.0 -0.576216 0.18774
354.1404
354.4805
465.1414
478.6891
684.7941
731.2197
0.0 -0.576216 0.250319
378.7574
401.02
452.1835
455.2088
718.8828
746.094
0.0 -0.576216 -0.312899
418.4059
418.4059
438.5044
438.5044
743.0328
743.0328
0.099804 0.172865 0.0
35.962
156.0959
332.9481
446.3745
475.8719
698.9761
0.099804 0.172865 0.06258
52.1199
164.2167
351.8016
440.6778
469.7523
690.1017
0.099804 0.172865 0.12516
117.2277
191.0411
390.9725
430.4377
449.6757
669.0213
0.099804 0.172865 0.18774
195.773
234.9348
392.5475
415.0723
463.7059
644.392
0.099804 0.172865 0.250319
262.8471
284.3281
367.7002
371.2933
522.9441
616.0215
0.099804 0.172865 -0.312899
311.8019
311.8019
339.2551
339.2551
576.6115
576.6115
0.099804 0.288108 0.0
168.5915
240.9989
428.3585
513.1814
547.718
631.4241
0.099804 0.288108 0.06258
169.067
252.1239
438.117
513.5784
538.2632
638.7453
0.099804 0.288108 0.12516
183.3843
279.2488
446.9873
495.3814
540.9702
649.6988
0.099804 0.288108 0.18774
218.8196
311.3923
433.8952
455.0062
566.0252
651.3281
0.099804 0.288108 0.250319
266.8433
338.7945
395.7774
419.3938
593.3318
639.9601
0.099804 0.288108 -0.312899
318.9508
318.9508
390.6451
390.6451
618.8912
618.8912
0.099804 0.403351 0.0
292.9909
309.6941
487.2598
570.3307
582.2928
629.7054
0.099804 0.403351 0.06258
283.296
318.9074
487.232
545.4771
596.2033
643.6232
0.099804 0.403351 0.12516
271.5085
338.737
475.3744
515.5907
614.9592
667.3569
0.099804 0.403351 0.18774
275.4232
364.8584
446.0557
490.4476
639.7287
683.6698
0.099804 0.403351 0.250319
301.9147
378.0472
422.5506
465.5338
663.3399
687.8082
0.099804 0.403351 -0.312899
343.469
343.469
440.1221
440.1221
680.333
680.333
0.099804 0.518595 0.0
347.8666
381.0612
523.4277
528.5799
623.8686
676.6789
0.099804 0.518595 0.06258
341.4564
377.5046
502.1134
534.1505
628.5089
681.1814
0.099804 0.518595 0.12516
326.234
379.6759
469.5405
526.6235
643.9692
695.4837
0.099804 0.518595 0.18774
320.7515
400.1909
438.9995
511.4214
670.6009
713.8576
0.099804 0.518595 0.250319
339.4683
403.743
440.839
494.0963
700.591
725.3371
0.099804 0.518595 -0.312899
372.7063
372.7063
471.4155
471.4155
721.4355
721.4355
0.199607 0.34573 0.0
254.5851
326.1916
453.9044
566.8547
581.8689
603.3824
0.199607 0.34573 0.06258
250.1455
338.0259
467.7237
534.4585
605.2482
612.5313
0.199607 0.34573 0.12516
245.4305
362.4707
489.9669
494.8454
612.1152
642.3953
0.199607 0.34573 0.18774
250.6264
377.9138
456.8138
493.5095
625.9941
659.1577
0.199607 0.34573 0.250319
272.5486
358.7101
441.7632
476.4899
642.2697
662.0094
0.199607 0.34573 -0.312899
312.896
312.896
454.2687
454.2687
655.1274
655.1274
0.199607 0.460973 0.0
331.5736
387.4604
498.3765
503.4885
595.9837
652.5319
0.199607 0.460973 0.06258
323.61
398.1242
488.4855
516.9292
606.7647
653.5088
0.199607 0.460973 0.12516
309.3761
413.1542
471.6504
537.4126
628.1227
660.2892
0.199607 0.460973 0.18774
298.2591
399.5381
471.958
541.0866
648.8361
673.3018
0.199607 0.460973 0.250319
299.8384
361.2599
486.8472
526.099
667.338
681.1042
0.199607 0.460973 -0.312899
322.5045
322.5045
505.3666
505.3666
678.961
678.961
0.199607 0.576216 0.0
373.0778
407.6242
466.963
531.6727
588.1461
668.0092
0.199607 0.576216 0.06258
359.7091
425.6023
455.0157
545.7849
596.2913
668.5193
0.199607 0.576216 0.12516
340.1055
430.3178
453.5549
563.9154
618.3603
673.5747
0.199607 0.576216 0.18774
322.5476
398.2399
479.4456
563.3892
646.1048
684.3147
0.199607 0.576216 0.250319
315.9255
361.5563
502.8178
547.3292
670.4706
690.7558
0.199607 0.576216 -0.312899
329.8323
329.8323
525.4459
525.4459
686.212
686.212
0.299411 0.518595 0.0
366.0194
430.7775
464.2332
515.5316
559.8585
658.044
0.299411 0.518595 0.06258
362.1391
421.523
480.3837
533.7979
573.8521
656.6939
0.299411 0.518595 0.12516
350.9413
403.6315
505.9223
569.5832
605.476
651.6829
0.299411 0.518595 0.18774
330.6475
373.5911
527.4581
590.9243
633.2874
646.2357
0.299411 0.518595 0.250319
308.8926
334.7943
544.4776
582.3715
647.2152
648.4884
0.299411 0.518595 -0.312899
307.1486
307.1486
562.3158
562.3158
650.6402
650.6402

weight
   0.0000000   0.0000000   0.0000000   0.0020000   
   0.0000000   0.0000000   0.1000000   0.0040000   
   0.0000000   0.0000000   0.2000000   0.0040000   
   0.0000000   0.0000000   0.3000000   0.0040000   
   0.0000000   0.0000000   0.4000000   0.0040000   
   0.0000000   0.0000000  -0.5000000   0.0020000   
   0.0000000   0.1000000   0.0000000   0.0120000   
   0.0000000   0.1000000   0.1000000   0.0240000   
   0.0000000   0.1000000   0.2000000   0.0240000   
   0.0000000   0.1000000   0.3000000   0.0240000   
   0.0000000   0.1000000   0.4000000   0.0240000   
   0.0000000   0.1000000  -0.5000000   0.0120000   
   0.0000000   0.2000000   0.0000000   0.0120000   
   0.0000000   0.2000000   0.1000000   0.0240000   
   0.0000000   0.2000000   0.2000000   0.0240000   
   0.0000000   0.2000000   0.3000000   0.0240000   
   0.0000000   0.2000000   0.4000000   0.0240000   
   0.0000000   0.2000000  -0.5000000   0.0120000   
   0.0000000   0.3000000   0.0000000   0.0120000   
   0.0000000   0.3000000   0.1000000   0.0240000   
   0.0000000   0.3000000   0.2000000   0.0240000   
   0.0000000   0.3000000   0.3000000   0.0240000   
   0.0000000   0.3000000   0.4000000   0.0240000   
   0.0000000   0.3000000  -0.5000000   0.0120000   
   0.0000000   0.4000000   0.0000000   0.0120000   
   0.0000000   0.4000000   0.1000000   0.0240000   
   0.0000000   0.4000000   0.2000000   0.0240000   
   0.0000000   0.4000000   0.3000000   0.0240000   
   0.0000000   0.4000000   0.4000000   0.0240000   
   0.0000000   0.4000000  -0.5000000   0.0120000   
   0.0000000  -0.5000000   0.0000000   0.0060000   
   0.0000000  -0.5000000   0.1000000   0.0120000   
   0.0000000  -0.5000000   0.2000000   0.0120000   
   0.0000000  -0.5000000   0.3000000   0.0120000   
   0.0000000  -0.5000000   0.4000000   0.0120000   
   0.0000000  -0.5000000  -0.5000000   0.0060000   
   0.1000000   0.1000000   0.0000000   0.0120000   
   0.1000000   0.1000000   0.1000000   0.0240000   
   0.1000000   0.1000000   0.2000000   0.0240000   
   0.1000000   0.1000000   0.3000000   0.0240000   
   0.1000000   0.1000000   0.4000000   0.0240000   
   0.1000000   0.1000000  -0.5000000   0.0120000   
   0.1000000   0.2000000   0.0000000   0.0240000   
   0.1000000   0.2000000   0.1000000   0.0480000   
   0.1000000   0.2000000   0.2000000   0.0480000   
   0.1000000   0.2000000   0.3000000   0.0480000   
   0.1000000   0.2000000   0.4000000   0.0480000   
   0.1000000   0.2000000  -0.5000000   0.0240000   
   0.1000000   0.3000000   0.0000000   0.0240000   
   0.1000000   0.3000000   0.1000000   0.0480000   
   0.1000000   0.3000000   0.2000000   0.0480000   
   0.1000000   0.3000000   0.3000000   0.0480000   
   0.1000000   0.3000000   0.4000000   0.0480000   
   0.1000000   0.3000000  -0.5000000   0.0240000   
   0.1000000   0.4000000   0.0000000   0.0240000   
   0.1000000   0.4000000   0.1000000   0.0480000   
   0.1000000   0.4000000   0.2000000   0.0480000   
   0.1000000   0.4000000   0.3000000   0.0480000   
   0.1000000   0.4000000   0.4000000   0.0480000   
   0.1000000   0.4000000  -0.5000000   0.0240000   
   0.2000000   0.2000000   0.0000000   0.0120000   
   0.2000000   0.2000000   0.1000000   0.0240000   
   0.2000000   0.2000000   0.2000000   0.0240000   
   0.2000000   0.2000000   0.3000000   0.0240000   
   0.2000000   0.2000000   0.4000000   0.0240000   
   0.2000000   0.2000000  -0.5000000   0.0120000   
   0.2000000   0.3000000   0.0000000   0.0240000   
   0.2000000   0.3000000   0.1000000   0.0480000   
   0.2000000   0.3000000   0.2000000   0.0480000   
   0.2000000   0.3000000   0.3000000   0.0480000   
   0.2000000   0.3000000   0.4000000   0.0480000   
   0.2000000   0.3000000  -0.5000000   0.0240000   
   0.2000000   0.4000000   0.0000000   0.0120000   
   0.2000000   0.4000000   0.1000000   0.0240000   
   0.2000000   0.4000000   0.2000000   0.0240000   
   0.2000000   0.4000000   0.3000000   0.0240000   
   0.2000000   0.4000000   0.4000000   0.0240000   
   0.2000000   0.4000000  -0.5000000   0.0120000   
   0.3000000   0.3000000   0.0000000   0.0120000   
   0.3000000   0.3000000   0.1000000   0.0240000   
   0.3000000   0.3000000   0.2000000   0.0240000   
   0.3000000   0.3000000   0.3000000   0.0240000   
   0.3000000   0.3000000   0.4000000   0.0240000   
   0.3000000   0.3000000  -0.5000000   0.0120000   