Number of volumes (nv), q-vectors (nq), normal mode (np), formula units(nm)
12 84 6 1

P	=	0.13	V	=	155.13812	E	=	-655.65114743
0.0 0.0 0.0
-0.0
-0.0
0.0
142.5433
142.5433
274.6133
0.0 0.0 0.061994
21.1968
21.1968
49.9531
140.6405
140.6405
272.5017
0.0 0.0 0.123988
42.2101
42.2101
97.4409
135.0525
135.0525
265.7611
0.0 0.0 0.185983
62.6357
62.6357
126.0671
126.0671
140.5686
253.4894
0.0 0.0 0.247977
81.8378
81.8378
113.9983
113.9983
178.2074
234.9168
0.0 0.0 -0.309971
99.1364
99.1364
99.1364
99.1364
209.7731
209.7731
0.0 0.115946 0.0
39.7622
44.3711
86.0853
151.0061
163.4614
271.1119
0.0 0.115946 0.061994
49.6495
54.0177
94.1339
149.3386
161.7166
269.009
0.0 0.115946 0.123988
62.4109
74.6394
118.8386
144.291
156.6024
262.4847
0.0 0.115946 0.185983
78.1926
92.0456
135.8535
148.3393
151.8704
251.0377
0.0 0.115946 0.247977
94.5517
108.5121
124.2903
137.3653
183.9245
234.1897
0.0 0.115946 -0.309971
110.2342
110.2342
123.8881
123.8881
211.7377
211.7377
0.0 0.231892 0.0
78.9091
81.3998
157.9052
168.7103
203.7819
261.1581
0.0 0.231892 0.061994
84.8322
85.0476
162.0379
167.4372
201.7446
259.6201
0.0 0.231892 0.123988
94.3721
99.6702
163.3291
173.5043
195.7512
255.1038
0.0 0.231892 0.185983
106.4957
118.5107
155.9475
185.4528
190.3194
247.7318
0.0 0.231892 0.247977
119.6284
138.0888
145.4741
172.6587
207.6333
237.404
0.0 0.231892 -0.309971
132.9341
132.9341
156.5268
156.5268
223.9304
223.9304
0.0 0.347838 0.0
106.1324
115.3513
184.1101
207.0861
236.394
246.4538
0.0 0.347838 0.061994
109.4353
116.3276
183.0661
210.1479
229.7764
249.9997
0.0 0.347838 0.123988
117.9478
120.7746
179.6102
215.1815
220.1153
253.5464
0.0 0.347838 0.185983
129.0403
130.8158
173.225
200.8286
229.1752
254.5124
0.0 0.347838 0.247977
140.9464
146.1265
164.0056
183.1645
239.2607
252.5208
0.0 0.347838 -0.309971
152.8658
152.8658
164.381
164.381
247.3696
247.3696
0.0 0.463784 0.0
118.4006
144.8948
192.6669
230.3926
233.438
253.4055
0.0 0.463784 0.061994
121.5884
143.094
191.6827
224.3278
236.5248
256.6167
0.0 0.463784 0.123988
129.974
140.2186
188.5316
211.4465
243.5416
261.6787
0.0 0.463784 0.185983
141.029
141.1315
182.8758
195.4806
251.7122
265.0876
0.0 0.463784 0.247977
148.3392
153.0454
174.7081
178.1969
258.8807
265.8942
0.0 0.463784 -0.309971
161.5899
161.5899
164.5149
164.5149
263.7983
263.7983
0.0 -0.57973 0.0
121.7437
158.1389
195.1646
221.719
241.4094
258.0377
0.0 -0.57973 0.061994
124.8938
155.3693
194.1813
216.9559
244.2794
260.433
0.0 -0.57973 0.123988
133.2819
149.7893
191.1113
205.3393
251.0508
264.9896
0.0 -0.57973 0.185983
144.5971
146.6378
185.7309
190.2695
258.6059
268.6385
0.0 -0.57973 0.247977
149.7069
156.6888
174.1343
177.9804
264.8731
270.0729
0.0 -0.57973 -0.309971
159.5922
159.5922
168.1137
168.1137
268.827
268.827
0.100412 0.173919 0.0
68.6534
80.3482
133.2326
170.152
190.1393
264.3773
0.100412 0.173919 0.061994
75.6025
83.7786
138.2313
169.157
188.2993
262.5508
0.100412 0.173919 0.123988
91.5036
92.6659
150.7374
167.3577
182.8853
257.0947
0.100412 0.173919 0.185983
104.3809
109.6111
154.0731
174.1777
177.8269
248.0082
0.100412 0.173919 0.247977
116.9261
125.8506
147.1838
162.6544
198.6249
235.1795
0.100412 0.173919 -0.309971
128.0323
128.0323
149.901
149.901
218.5415
218.5415
0.100412 0.289865 0.0
103.4306
113.2435
172.4729
199.5442
221.7201
251.9771
0.100412 0.289865 0.061994
104.388
116.622
174.6504
200.3505
218.4448
252.0872
0.100412 0.289865 0.123988
109.5451
124.6922
177.2855
203.9062
210.3027
251.6075
0.100412 0.289865 0.185983
120.3991
134.8308
174.8518
196.032
214.9608
249.3093
0.100412 0.289865 0.247977
134.7135
144.9361
168.6256
181.5421
226.3187
244.4311
0.100412 0.289865 -0.309971
146.7336
146.7336
168.7846
168.7846
236.6568
236.6568
0.100412 0.405811 0.0
131.6406
135.7927
194.1508
224.1452
236.1424
244.766
0.100412 0.405811 0.061994
130.0646
138.4645
194.0523
224.5128
230.2812
250.189
0.100412 0.405811 0.123988
128.1001
145.4251
191.8025
214.4993
234.0405
255.9397
0.100412 0.405811 0.185983
130.4143
154.46
184.8889
201.599
242.101
258.9148
0.100412 0.405811 0.247977
139.0953
161.339
175.4333
189.9106
249.8497
258.7979
0.100412 0.405811 -0.309971
152.3322
152.3322
179.6113
179.6113
255.6656
255.6656
0.100412 0.521757 0.0
138.9385
158.7428
202.1456
221.8711
237.5218
255.086
0.100412 0.521757 0.061994
140.0217
157.3631
200.1821
218.3037
240.5799
257.537
0.100412 0.521757 0.123988
140.1913
158.1412
193.2714
211.065
247.5585
262.1972
0.100412 0.521757 0.185983
138.7983
164.8668
181.2617
203.2599
255.188
265.7792
0.100412 0.521757 0.247977
141.7648
164.8547
175.8274
194.7245
261.4423
266.9534
0.100412 0.521757 -0.309971
151.243
151.243
185.2935
185.2935
265.4677
265.4677
0.200824 0.347838 0.0
132.7292
150.3797
189.6585
227.4434
232.8685
238.1841
0.200824 0.347838 0.061994
130.1369
152.4782
193.0165
223.4024
228.0304
245.0902
0.200824 0.347838 0.123988
126.5068
157.7694
198.4633
209.7771
230.5727
251.0532
0.200824 0.347838 0.185983
127.7722
163.4472
195.4488
199.6306
236.1248
253.6314
0.200824 0.347838 0.247977
136.1381
162.3626
186.9866
195.8992
243.0815
252.8145
0.200824 0.347838 -0.309971
149.721
149.721
190.0629
190.0629
249.0626
249.0626
0.200824 0.463784 0.0
159.7163
169.7406
209.3881
222.1161
233.9843
246.0196
0.200824 0.463784 0.061994
154.3809
172.7924
209.1875
217.8275
237.7183
248.6681
0.200824 0.463784 0.123988
145.2138
177.5555
199.8263
218.5121
242.6676
254.2418
0.200824 0.463784 0.185983
138.5696
175.3093
193.759
217.3918
248.5233
258.279
0.200824 0.463784 0.247977
138.592
161.1655
198.8144
212.661
253.922
259.3064
0.200824 0.463784 -0.309971
146.9183
146.9183
205.9708
205.9708
257.6679
257.6679
0.200824 0.57973 0.0
173.7966
174.5601
211.9338
219.1579
233.206
251.3875
0.200824 0.57973 0.061994
165.681
180.7408
203.0554
224.0148
236.8259
253.0795
0.200824 0.57973 0.123988
155.2062
187.5678
189.0303
226.0139
244.6368
257.1415
0.200824 0.57973 0.185983
145.7168
173.1569
195.2145
223.4803
252.2336
260.7439
0.200824 0.57973 0.247977
141.3216
157.3252
203.1464
217.9923
257.7096
262.0327
0.200824 0.57973 -0.309971
145.3621
145.3621
210.9083
210.9083
260.9326
260.9326
0.301236 0.521757 0.0
182.3185
195.8469
205.533
222.2441
233.1149
246.2816
0.301236 0.521757 0.061994
176.4321
194.9199
201.7261
227.041
238.4819
246.1705
0.301236 0.521757 0.123988
164.3141
183.4903
204.6349
234.1406
246.7223
247.1408
0.301236 0.521757 0.185983
151.8386
168.0582
210.9011
234.8522
250.2328
253.2516
0.301236 0.521757 0.247977
143.4388
153.1501
217.7363
230.5938
253.9411
255.8758
0.301236 0.521757 -0.309971
143.5871
143.5871
224.4808
224.4808
255.8699
255.8699
P	=	500.01	V	=	128.70553	E	=	-655.61369395
0.0 0.0 0.0
-0.0
0.0
0.0
193.5829
193.5829
395.7354
0.0 0.0 0.062043
29.5901
29.5901
70.7677
191.0644
191.0644
392.4308
0.0 0.0 0.124087
58.0194
58.0194
138.3204
183.4458
183.4458
382.0873
0.0 0.0 0.18613
84.7028
84.7028
170.7582
170.7582
200.0605
363.726
0.0 0.0 0.248174
109.6293
109.6293
153.5171
153.5171
254.2623
336.4584
0.0 0.0 -0.310217
132.7683
132.7683
132.7706
132.7706
299.8312
299.9995
0.0 0.115712 0.0
54.7376
58.5298
123.4601
204.6957
224.4507
390.0594
0.0 0.115712 0.062043
65.9508
73.445
135.6282
202.3891
222.027
386.9856
0.0 0.115712 0.124087
83.6686
101.27
170.8641
195.383
214.806
377.443
0.0 0.115712 0.18613
105.1667
124.5972
183.6743
202.8081
217.5829
360.6303
0.0 0.115712 0.248174
127.2395
146.3571
167.7187
187.0502
263.3317
335.8451
0.0 0.115712 -0.310217
148.443
148.544
167.3579
168.1682
302.9783
303.4551
0.0 0.231424 0.0
107.7402
108.2674
226.663
228.7486
285.1514
374.0333
0.0 0.231424 0.062043
113.1675
115.5831
226.8174
232.8546
282.0224
372.1515
0.0 0.231424 0.124087
126.0281
135.2048
220.9306
249.3494
273.0699
366.3824
0.0 0.231424 0.18613
143.2616
159.864
210.9701
256.7665
274.5483
356.0864
0.0 0.231424 0.248174
162.0034
185.9219
197.2183
238.1792
299.5028
340.7906
0.0 0.231424 -0.310217
180.393
180.5622
211.9742
215.1125
320.892
322.8941
0.0 0.347135 0.0
142.9215
156.7767
251.1842
298.0473
336.9166
350.4805
0.0 0.347135 0.062043
147.3544
158.2628
249.5741
302.2114
326.0642
357.1694
0.0 0.347135 0.124087
159.0252
164.4299
244.5628
302.4123
317.6838
363.6777
0.0 0.347135 0.18613
174.7242
177.8898
235.8494
279.9706
331.2477
365.8603
0.0 0.347135 0.248174
191.7688
198.7156
223.5696
253.6415
345.6593
363.3497
0.0 0.347135 -0.310217
208.4162
208.5472
224.4929
226.3059
356.0995
357.2044
0.0 0.462847 0.0
161.4384
197.4509
265.0337
324.7137
337.2581
366.3928
0.0 0.462847 0.062043
165.8401
194.8672
263.6295
315.7113
342.0002
370.8051
0.0 0.462847 0.124087
177.3488
190.7804
259.106
296.2249
352.6262
378.119
0.0 0.462847 0.18613
192.3298
192.6051
250.9662
271.9161
364.7464
383.4447
0.0 0.462847 0.248174
203.4139
208.9492
239.2707
245.8727
375.05
385.2173
0.0 0.462847 -0.310217
221.1455
223.0309
224.8281
224.9147
381.8136
382.7172
0.0 -0.578559 0.0
166.9138
216.3459
269.4955
310.7323
349.4137
375.235
0.0 -0.578559 0.062043
171.3325
212.1929
268.156
303.7532
353.6979
378.4482
0.0 -0.578559 0.124087
182.8572
203.949
263.7829
286.4834
363.8483
384.8125
0.0 -0.578559 0.18613
198.0303
199.6804
255.7912
264.1966
375.2336
390.1076
0.0 -0.578559 0.248174
204.7311
214.1973
240.6998
244.2158
384.6529
392.3507
0.0 -0.578559 -0.310217
217.6167
221.3923
229.9156
229.9821
389.6779
391.4697
0.100209 0.173568 0.0
93.8942
107.3066
188.4334
234.4777
264.1019
379.2067
0.100209 0.173568 0.062043
102.5652
111.9605
195.2878
233.7157
261.4072
376.7928
0.100209 0.173568 0.124087
122.827
124.4203
208.9775
235.9089
253.3745
369.3716
0.100209 0.173568 0.18613
140.6483
147.2299
208.8422
240.2902
256.2177
356.538
0.100209 0.173568 0.248174
158.2046
169.4682
200.1382
223.0383
285.5918
337.9969
0.100209 0.173568 -0.310217
172.6979
173.6553
204.0356
204.892
313.7932
314.1071
0.100209 0.289279 0.0
140.5041
152.6248
237.3526
284.5416
313.2059
359.3432
0.100209 0.289279 0.062043
141.3635
157.4191
239.5266
286.4728
308.0808
360.0257
0.100209 0.289279 0.124087
147.5903
168.7195
241.7473
289.1151
299.3207
360.3857
0.100209 0.289279 0.18613
161.8816
182.7696
238.5038
272.3856
310.7739
357.9044
0.100209 0.289279 0.248174
181.7503
196.2672
230.7107
251.105
326.9891
351.3455
0.100209 0.289279 -0.310217
197.5212
199.7535
230.9528
233.2604
340.4931
341.5534
0.100209 0.404991 0.0
179.4909
184.3954
266.8995
323.193
333.9931
351.5427
0.100209 0.404991 0.062043
176.3948
188.8565
266.6417
318.4991
330.728
358.9145
0.100209 0.404991 0.124087
173.0379
198.8364
263.5441
299.9596
338.6804
367.6258
0.100209 0.404991 0.18613
176.0504
211.4799
254.0066
279.862
350.4472
372.7124
0.100209 0.404991 0.248174
188.1321
219.7544
241.4841
263.2302
361.525
373.5289
0.100209 0.404991 -0.310217
205.6283
206.5851
248.2944
249.1441
369.5724
369.7421
0.100209 0.520703 0.0
191.1331
216.7056
279.9267
311.0558
342.9995
369.9563
0.100209 0.520703 0.062043
192.1347
214.7492
277.1161
305.451
347.5076
373.1298
0.100209 0.520703 0.124087
190.2118
217.0078
266.808
294.2288
357.9207
379.3779
0.100209 0.520703 0.18613
187.0278
227.4207
248.55
282.8781
369.4543
384.6812
0.100209 0.520703 0.248174
191.4543
223.9808
243.5671
270.8757
378.8673
387.0551
0.100209 0.520703 -0.310217
203.5083
205.6603
257.1239
257.8224
384.3166
385.7848
0.200419 0.347135 0.0
179.8236
205.2671
262.4806
328.1663
331.1328
337.3081
0.200419 0.347135 0.062043
176.1839
208.0061
266.706
314.9468
329.3023
349.0931
0.200419 0.347135 0.124087
170.8788
215.1281
273.6357
292.7849
333.6642
358.826
0.200419 0.347135 0.18613
172.1477
222.7746
270.4905
275.5858
342.0385
363.8968
0.200419 0.347135 0.248174
183.1289
219.7933
259.0521
271.3846
351.982
364.259
0.200419 0.347135 -0.310217
200.6938
202.4552
263.2042
264.4159
359.9189
360.1797
0.200419 0.462847 0.0
217.2859
234.8374
291.8768
311.5784
335.7018
355.1398
0.200419 0.462847 0.062043
209.3926
238.7708
291.0016
304.606
341.6752
357.9491
0.200419 0.462847 0.124087
195.4259
244.6676
276.0408
304.6794
349.991
364.7495
0.200419 0.462847 0.18613
185.7179
237.7682
269.008
303.7146
358.9429
371.0287
0.200419 0.462847 0.248174
186.0216
216.1048
277.7698
297.9193
367.1116
374.0879
0.200419 0.462847 -0.310217
196.4787
197.2804
288.5751
288.7368
372.3447
372.9411
0.200419 0.578559 0.0
237.718
242.9631
295.274
306.6572
334.4905
363.7138
0.200419 0.578559 0.062043
226.0998
250.7393
281.0156
313.8004
339.5372
365.5832
0.200419 0.578559 0.124087
208.9593
258.0013
260.8565
317.0852
350.8132
370.3058
0.200419 0.578559 0.18613
194.3839
233.2389
272.6509
314.1971
362.6403
375.3147
0.200419 0.578559 0.248174
188.524
210.5921
285.1645
307.0439
371.8344
378.0932
0.200419 0.578559 -0.310217
193.5026
195.2268
296.8625
297.1687
376.4967
377.7048
0.300628 0.520703 0.0
249.8593
275.2449
285.2881
313.598
330.8119
355.1163
0.300628 0.520703 0.062043
240.2821
270.1183
281.6554
320.1301
338.2591
354.5396
0.300628 0.520703 0.124087
220.6767
248.5436
287.2616
330.3441
350.6823
354.3486
0.300628 0.520703 0.18613
201.9005
224.1297
296.9786
332.7825
358.5809
360.7552
0.300628 0.520703 0.248174
190.7135
203.3632
308.0556
327.5124
364.7595
366.6915
0.300628 0.520703 -0.310217
190.9016
191.3584
318.6701
318.7174
367.9214
368.0307
P	=	1000.2	V	=	116.0472	E	=	-655.55095859
0.0 0.0 0.0
-0.0
-0.0
-0.0
228.2296
228.2296
472.7918
0.0 0.0 0.062119
35.1006
35.1006
84.1376
225.2724
225.2724
468.7707
0.0 0.0 0.124238
68.8416
68.8416
164.7379
216.3487
216.3487
456.3019
0.0 0.0 0.186356
100.4908
100.4908
201.5312
201.5312
238.7328
434.3972
0.0 0.0 0.248475
129.9545
129.9545
181.415
181.415
303.8092
402.0036
0.0 0.0 -0.310594
157.1489
157.1489
157.1565
157.1565
358.424
358.5236
0.0 0.115659 0.0
65.2534
68.5788
147.6221
241.0586
264.9302
465.8284
0.0 0.115659 0.062119
77.5177
86.1864
162.5617
238.339
262.012
462.1179
0.0 0.115659 0.124238
98.706
118.2984
204.9264
230.1161
253.3738
450.6676
0.0 0.115659 0.186356
124.2865
146.1235
216.43
239.0127
260.6394
430.6972
0.0 0.115659 0.248475
150.3971
172.1746
197.8106
220.2953
315.1692
401.407
0.0 0.115659 -0.310594
175.316
175.3819
197.1111
197.8559
362.5207
362.9305
0.0 0.231318 0.0
127.1633
127.7087
269.0887
270.8035
337.7225
446.0637
0.0 0.231318 0.062119
132.9986
136.2907
266.7759
278.2892
333.8597
443.9329
0.0 0.231318 0.124238
148.2385
158.6082
259.8201
297.9511
323.1004
437.2805
0.0 0.231318 0.186356
168.6483
187.503
248.1674
302.4404
328.8344
425.4169
0.0 0.231318 0.248475
190.7896
218.4818
232.1476
279.7237
358.5159
407.7698
0.0 0.231318 -0.310594
212.4453
212.6504
249.3773
251.891
384.5807
386.258
0.0 0.346978 0.0
168.2913
184.7271
295.7898
355.7776
400.8664
416.8457
0.0 0.346978 0.062119
173.3944
186.2658
293.799
360.4767
387.6248
425.4904
0.0 0.346978 0.124238
186.9132
193.3429
287.7546
357.735
380.0787
433.9818
0.0 0.346978 0.186356
205.3297
209.236
277.4722
330.4898
396.2826
437.1745
0.0 0.346978 0.248475
225.4884
233.9969
263.1248
298.7476
413.4432
434.5924
0.0 0.346978 -0.310594
245.2174
245.4604
264.657
266.0047
426.2319
427.1033
0.0 0.462637 0.0
190.4307
231.8313
312.808
384.89
402.4643
437.5999
0.0 0.462637 0.062119
195.3323
229.0038
310.9937
373.9884
408.4036
442.9409
0.0 0.462637 0.124238
208.3884
224.5655
305.3572
350.5861
421.453
452.0615
0.0 0.462637 0.186356
226.1719
226.6263
295.5823
321.6554
436.2626
458.7432
0.0 0.462637 0.248475
239.7664
245.6059
281.7854
290.8069
448.8867
460.9226
0.0 0.462637 -0.310594
261.7241
262.8472
264.5949
264.7668
457.161
457.8699
0.0 -0.578296 0.0
197.011
253.7989
318.4455
367.6657
416.9657
448.8305
0.0 -0.578296 0.062119
201.8769
249.0986
316.6747
359.4769
422.2584
452.7578
0.0 -0.578296 0.124238
214.8615
239.8845
311.1249
339.127
434.8076
460.6101
0.0 -0.578296 0.186356
232.5332
235.4219
301.421
312.7638
448.8477
467.1701
0.0 -0.578296 0.248475
241.8683
251.8311
284.8365
287.6718
460.44
469.8903
0.0 -0.578296 -0.310594
258.4781
260.7314
270.6351
270.7897
467.004
468.3822
0.100164 0.173489 0.0
111.4825
125.7767
224.143
277.4789
312.2392
452.4567
0.100164 0.173489 0.062119
121.1003
131.3244
232.1595
276.9432
308.8944
449.6093
0.100164 0.173489 0.124238
144.1635
146.0426
246.9441
281.5515
298.9937
440.8993
0.100164 0.173489 0.186356
165.543
172.2954
245.7697
283.0447
307.2151
425.9062
0.100164 0.173489 0.248475
186.3702
198.6052
235.5007
262.2489
342.3305
404.2261
0.100164 0.173489 -0.310594
203.414
204.241
239.8126
240.4756
375.8661
376.0145
0.100164 0.289148 0.0
165.8612
179.2501
279.5545
339.6608
371.7738
427.8381
0.100164 0.289148 0.062119
166.4996
184.8802
282.0091
341.9647
365.5784
428.9789
0.100164 0.289148 0.124238
173.2999
198.1325
284.4618
342.36
357.7071
430.0223
0.100164 0.289148 0.186356
189.7343
214.8247
280.704
321.1841
372.1699
427.6646
0.100164 0.289148 0.248475
212.9767
230.8627
271.8273
295.4352
391.4013
420.334
0.100164 0.289148 -0.310594
232.1907
234.0286
272.4419
274.2344
407.7352
408.5953
0.100164 0.404807 0.0
211.3291
216.6996
314.3849
385.798
396.3313
419.2462
0.100164 0.404807 0.062119
207.2988
222.2017
314.0727
377.6916
395.2029
427.9821
0.100164 0.404807 0.124238
203.1354
233.9274
310.3834
355.0397
405.2195
438.9133
0.100164 0.404807 0.186356
206.5369
248.7877
299.2266
330.9885
419.3189
445.469
0.100164 0.404807 0.248475
220.676
258.2955
285.0826
310.9717
432.5777
446.6759
0.100164 0.404807 -0.310594
241.6511
242.4987
293.3366
294.1002
442.1604
442.2626
0.100164 0.520466 0.0
225.3754
254.2446
330.565
367.9727
409.0091
442.3045
0.100164 0.520466 0.062119
226.0533
252.5036
326.9873
361.5074
414.6176
446.1422
0.100164 0.520466 0.124238
223.1625
255.9015
314.3616
348.5443
427.4886
453.8485
0.100164 0.520466 0.186356
219.5236
268.1676
292.9212
335.0356
441.6881
460.3703
0.100164 0.520466 0.248475
224.8766
263.7851
287.7612
320.5546
453.2981
463.1351
0.100164 0.520466 -0.310594
240.1408
241.4125
304.1618
304.6307
460.1947
461.3003
0.200328 0.346978 0.0
211.4061
241.331
309.0341
393.043
393.1963
400.4024
0.200328 0.346978 0.062119
206.902
244.5329
314.1235
373.1978
394.5023
415.4009
0.200328 0.346978 0.124238
200.2592
252.8526
322.4802
346.4609
399.8605
427.9172
0.200328 0.346978 0.186356
201.4872
261.6849
319.8865
325.0251
409.7625
434.6458
0.200328 0.346978 0.248475
214.427
257.9387
306.2318
320.2947
421.361
435.487
0.200328 0.346978 -0.310594
235.6146
237.0833
311.03
312.0676
430.6195
430.8346
0.200328 0.462637 0.0
254.9642
276.8734
344.2294
368.4689
399.5407
424.5846
0.200328 0.462637 0.062119
245.6519
281.4932
343.294
360.3163
407.382
427.6254
0.200328 0.462637 0.124238
229.1711
288.161
326.2199
360.5547
418.2775
435.5418
0.200328 0.462637 0.186356
217.6914
279.597
318.5268
359.6914
429.1932
443.2072
0.200328 0.462637 0.248475
217.9958
254.1957
328.8265
352.8628
438.9267
446.9143
0.200328 0.462637 -0.310594
230.9095
231.4398
341.6928
341.8758
445.1287
445.5478
0.200328 0.578296 0.0
278.948
286.8331
348.4292
362.3283
397.7221
434.8095
0.200328 0.578296 0.062119
265.242
296.2135
331.1746
371.5697
403.9905
437.0012
0.200328 0.578296 0.124238
245.0261
303.8772
308.6164
376.2601
418.006
442.617
0.200328 0.578296 0.186356
228.038
274.6485
322.839
373.0835
432.6146
448.5856
0.200328 0.578296 0.248475
221.3143
247.7857
337.8694
364.4175
443.8902
451.7433
0.200328 0.578296 -0.310594
227.8432
228.9606
352.044
352.3484
449.9298
450.7926
0.300491 0.520466 0.0
293.3905
325.8868
336.119
370.6325
391.7811
424.6637
0.300491 0.520466 0.062119
282.0627
318.2017
333.6011
378.8573
401.1166
423.9701
0.300491 0.520466 0.124238
259.0426
292.4873
340.8863
391.9682
416.8316
423.5079
0.300491 0.520466 0.186356
237.0487
263.784
352.6223
395.7964
427.8684
429.526
0.300491 0.520466 0.248475
223.9012
239.1622
365.912
389.5948
434.8411
436.8874
0.300491 0.520466 -0.310594
224.313
224.6749
378.7172
378.8688
438.4668
438.5668
P	=	1500.36	V	=	107.75833	E	=	-655.4813029
0.0 0.0 0.0
-0.0
-0.0
0.0
256.3742
256.3742
532.7128
0.0 0.0 0.062178
39.2941
39.2941
94.4566
253.0236
253.0236
528.1353
0.0 0.0 0.124356
77.2558
77.2558
185.1202
242.9797
242.9797
514.0012
0.0 0.0 0.186535
113.061
113.061
226.4358
226.4358
268.5714
489.2909
0.0 0.0 0.248713
146.4014
146.4014
204.0593
204.0593
342.0737
452.8253
0.0 0.0 -0.310891
176.9689
176.9689
177.0033
177.0033
403.7019
403.8579
0.0 0.115623 0.0
72.9617
76.733
166.6132
270.4348
297.285
524.6764
0.0 0.115623 0.062178
86.8099
95.7263
183.6747
267.352
293.9649
520.4942
0.0 0.115623 0.124356
110.6621
131.2324
231.5417
258.0997
284.1184
507.6328
0.0 0.115623 0.186535
139.5406
162.8321
242.8192
267.7736
294.0932
485.2541
0.0 0.115623 0.248713
169.0009
192.5581
222.1016
246.5772
355.3368
452.4437
0.0 0.115623 -0.310891
196.9835
197.0602
220.7689
221.2127
408.7964
409.0643
0.0 0.231245 0.0
142.2736
142.7447
301.4069
305.3331
378.963
501.8107
0.0 0.231245 0.062178
148.7544
152.1814
298.8098
313.8213
374.5258
499.5371
0.0 0.231245 0.124356
165.8295
176.5547
290.9731
335.9649
362.3063
492.442
0.0 0.231245 0.186535
188.8222
208.6275
277.9036
337.9751
371.3113
479.6283
0.0 0.231245 0.248713
213.7838
243.4873
259.9909
311.7724
404.5508
460.2996
0.0 0.231245 -0.310891
238.0898
238.1792
278.3008
280.1074
434.5314
435.5856
0.0 0.346868 0.0
188.3024
206.2828
331.3308
400.5935
450.5729
467.99
0.0 0.346868 0.062178
193.8809
208.0767
329.0608
405.6916
435.2863
478.4142
0.0 0.346868 0.124356
208.8688
215.8982
322.1711
400.4417
428.5952
488.6559
0.0 0.346868 0.186535
229.5209
233.4724
310.5451
369.3583
446.9724
492.8009
0.0 0.346868 0.248713
252.2644
261.0269
294.4116
333.4306
466.2503
490.2474
0.0 0.346868 -0.310891
274.4892
274.568
295.3536
296.5823
480.9903
481.5288
0.0 0.46249 0.0
213.101
258.579
350.7375
431.2013
452.7593
492.6672
0.0 0.46249 0.062178
218.4171
255.5006
348.5918
418.8491
459.713
498.7003
0.0 0.46249 0.124356
232.7571
250.7972
342.0399
392.3659
474.7273
509.2273
0.0 0.46249 0.186535
252.6106
253.2602
330.8888
359.854
491.6557
517.0405
0.0 0.46249 0.248713
267.9023
274.556
315.3155
325.3705
506.0919
519.6458
0.0 0.46249 -0.310891
292.9469
293.5997
296.0562
296.1081
515.5583
516.1925
0.0 -0.578113 0.0
220.4775
282.9126
357.2523
411.5422
468.9505
505.629
0.0 -0.578113 0.062178
225.731
277.7368
355.1361
402.39
475.0386
510.0831
0.0 -0.578113 0.124356
239.9353
267.6824
348.6331
379.6086
489.4925
519.0631
0.0 -0.578113 0.186535
259.6298
263.0533
337.521
350.0925
505.6835
526.6421
0.0 -0.578113 0.248713
270.5927
281.4304
318.8456
321.9778
519.0486
529.8314
0.0 -0.578113 -0.310891
289.7821
291.4073
302.7938
302.854
526.7856
527.9466
0.100132 0.173434 0.0
124.6282
140.4655
252.3828
311.6324
350.2229
509.2076
0.100132 0.173434 0.062178
135.0643
146.6856
261.3202
311.2348
346.3278
506.1104
0.100132 0.173434 0.124356
160.4389
163.1579
277.0854
317.5077
334.8568
496.5821
0.100132 0.173434 0.186535
185.2576
191.6273
275.1629
316.5229
347.107
480.0419
0.100132 0.173434 0.248713
208.7713
221.3719
263.4179
292.7998
386.6336
455.9386
0.100132 0.173434 -0.310891
227.9646
228.5711
267.6898
267.9685
424.3052
424.341
0.100132 0.289056 0.0
185.2915
200.1959
312.9947
382.7221
417.4848
480.669
0.100132 0.289056 0.062178
185.9869
206.4118
315.7249
385.2106
410.4203
482.2972
0.100132 0.289056 0.124356
193.3613
221.1473
318.392
383.5518
403.3467
484.1587
0.100132 0.289056 0.186535
211.3937
239.966
314.0964
358.8639
420.1011
482.1369
0.100132 0.289056 0.248713
237.2026
258.123
304.1057
329.5461
441.6984
474.3245
0.100132 0.289056 -0.310891
259.4541
260.8564
304.665
305.8489
460.3723
460.9111
0.100132 0.404679 0.0
236.1658
241.804
351.8977
434.2192
444.237
471.7555
0.100132 0.404679 0.062178
231.3779
248.1949
351.5426
423.2145
445.0821
481.4915
0.100132 0.404679 0.124356
226.6721
261.3011
347.3147
397.3565
456.7879
494.1497
0.100132 0.404679 0.186535
230.3862
277.9485
334.6239
370.4394
472.7713
501.9441
0.100132 0.404679 0.248713
246.0127
288.4074
319.0566
348.06
487.7875
503.5744
0.100132 0.404679 -0.310891
269.6996
270.3639
328.575
329.0664
498.5845
498.7156
0.100132 0.520302 0.0
251.9643
283.4241
370.4643
411.7309
459.8282
498.183
0.100132 0.520302 0.062178
252.3718
281.7615
366.2035
404.6739
466.3207
502.4816
0.100132 0.520302 0.124356
248.6907
286.0839
351.4797
390.5366
481.1492
511.2578
0.100132 0.520302 0.186535
244.7632
299.9207
327.2663
375.6177
497.4939
518.7873
0.100132 0.520302 0.248713
250.9353
294.595
322.2821
359.3574
510.8931
522.0198
0.100132 0.520302 -0.310891
268.4509
269.36
340.9044
341.303
518.9313
519.8573
0.200264 0.346868 0.0
235.9355
269.3874
345.5223
441.3325
443.5104
448.8346
0.200264 0.346868 0.062178
230.838
272.9224
351.3269
418.041
445.1549
466.6253
0.200264 0.346868 0.124356
223.3081
282.1292
360.889
387.6052
451.1843
481.421
0.200264 0.346868 0.186535
224.5804
291.8619
357.7026
363.8996
462.3194
489.5923
0.200264 0.346868 0.248713
238.9333
287.4297
342.6638
358.6282
475.3629
490.9606
0.200264 0.346868 -0.310891
262.7216
263.9199
348.4242
349.0968
485.7851
485.8742
0.200264 0.46249 0.0
284.2503
309.4144
384.9395
412.0354
448.7448
478.4286
0.200264 0.46249 0.062178
273.7453
314.5472
383.7739
403.1392
457.966
481.5788
0.200264 0.46249 0.124356
255.3238
321.6864
364.6151
403.9557
470.8912
490.1766
0.200264 0.46249 0.186535
242.6445
311.5207
356.7155
403.3339
483.4539
498.9658
0.200264 0.46249 0.248713
243.0889
283.3776
368.524
395.7531
494.6008
503.398
0.200264 0.46249 -0.310891
257.6669
258.031
383.1692
383.3012
501.6456
501.9943
0.200264 0.578113 0.0
310.8598
320.7365
389.1897
405.5692
446.3287
489.7968
0.200264 0.578113 0.062178
295.3984
331.3497
369.6164
416.3226
453.5151
492.132
0.200264 0.578113 0.124356
272.678
338.8205
345.4782
422.1417
469.655
498.2727
0.200264 0.578113 0.186535
253.9541
306.1718
361.6753
418.8673
486.5754
505.0213
0.200264 0.578113 0.248713
246.8602
276.4102
378.8711
409.1676
499.6891
508.7102
0.200264 0.578113 -0.310891
254.5529
255.3367
395.1485
395.3917
506.833
507.5317
0.300396 0.520302 0.0
326.9839
365.0961
375.0542
414.3764
438.5714
478.721
0.300396 0.520302 0.062178
314.1538
354.9102
373.6795
423.9447
449.3081
477.8342
0.300396 0.520302 0.124356
288.3241
325.6927
382.2074
439.458
467.5268
476.9323
0.300396 0.520302 0.186535
264.0069
293.7484
395.5856
444.6688
481.3129
482.4306
0.300396 0.520302 0.248713
249.7576
266.6622
410.8254
437.94
489.1344
491.2278
0.300396 0.520302 -0.310891
250.4743
250.6813
425.5793
425.6682
493.2674
493.3425
P	=	2000.32	V	=	101.64955	E	=	-655.40905894
0.0 0.0 0.0
-0.0
-0.0
0.0
280.1006
280.1006
583.7901
0.0 0.0 0.062212
42.9457
42.9457
103.3994
276.4147
276.4147
578.7345
0.0 0.0 0.124423
84.4344
84.4344
202.5852
265.3871
265.3871
563.1222
0.0 0.0 0.186635
123.5531
123.5531
247.2751
247.2751
293.8248
535.8453
0.0 0.0 0.248847
159.9499
159.9499
222.8384
222.8384
374.207
495.6726
0.0 0.0 -0.311058
193.3044
193.3044
193.3159
193.3159
441.7679
441.8313
0.0 0.1156 0.0
79.8112
83.7449
182.5778
295.2165
324.3899
574.8162
0.0 0.1156 0.062212
94.7632
104.1546
201.4893
291.8163
320.7232
570.2123
0.0 0.1156 0.124423
120.818
142.4578
254.0405
281.6538
309.8642
556.0591
0.0 0.1156 0.186635
152.3402
176.852
264.9265
291.8391
322.4113
531.4605
0.0 0.1156 0.248847
184.4707
209.3222
242.3098
268.57
389.2631
495.464
0.0 0.1156 -0.311058
214.9577
215.0276
240.2079
240.7553
447.6972
447.9566
0.0 0.231199 0.0
155.3544
155.7313
328.6852
334.4432
413.3834
549.2259
0.0 0.231199 0.062212
162.4018
165.8337
325.8094
343.7637
408.4657
546.8044
0.0 0.231199 0.124423
180.9417
192.054
317.1932
367.7945
395.1563
539.2172
0.0 0.231199 0.186635
205.9224
226.6171
302.8967
367.6963
407.1545
525.4304
0.0 0.231199 0.248847
233.0623
264.3071
283.3724
338.8403
443.6082
504.5038
0.0 0.231199 -0.311058
259.4782
259.6646
302.1878
304.1599
476.4577
477.5385
0.0 0.346799 0.0
205.704
224.3809
361.3563
438.4077
492.3114
511.2986
0.0 0.346799 0.062212
211.6835
226.3732
358.8255
443.6591
475.5335
523.1362
0.0 0.346799 0.124423
227.8089
235.0078
351.1943
436.1882
469.574
534.837
0.0 0.346799 0.186635
250.1558
254.1407
338.4274
401.9902
489.7595
539.758
0.0 0.346799 0.248847
274.8734
284.0103
320.8166
362.6843
510.9824
537.1938
0.0 0.346799 -0.311058
299.0524
299.2207
321.313
322.4938
527.1553
527.7433
0.0 0.462398 0.0
232.8339
280.7276
382.8446
470.0929
495.1846
539.3159
0.0 0.462398 0.062212
238.4523
277.545
380.4199
456.5797
502.9298
545.9331
0.0 0.462398 0.124423
253.759
272.8498
373.0709
427.6122
519.5745
557.6264
0.0 0.462398 0.186635
275.2041
275.8904
360.7316
392.081
538.4072
566.3978
0.0 0.462398 0.248847
291.9784
299.1143
343.6601
354.4418
554.5335
569.3717
0.0 0.462398 -0.311058
318.9908
320.0821
322.5943
322.6795
565.0995
565.5553
0.0 -0.577998 0.0
240.8983
306.9995
390.1391
448.1543
512.7953
553.9328
0.0 -0.577998 0.062212
246.4342
301.5906
387.716
438.3055
519.5118
558.7844
0.0 -0.577998 0.124423
261.5522
291.1304
380.3707
413.6718
535.5463
568.6735
0.0 -0.577998 0.186635
282.8086
286.5233
368.0337
381.625
553.6275
577.1216
0.0 -0.577998 0.248847
294.9596
306.5867
347.622
350.9691
568.632
580.7104
0.0 -0.577998 -0.311058
315.6978
317.9576
329.9177
330.0925
577.5185
578.4179
0.100112 0.173399 0.0
136.0822
153.031
276.2186
340.4592
381.8928
557.5122
0.100112 0.173399 0.062212
147.2383
159.816
285.8824
340.1917
377.5517
554.1472
0.100112 0.173399 0.124423
174.4493
177.7842
302.4162
347.8781
364.7925
543.7959
0.100112 0.173399 0.186635
201.891
208.0756
299.859
344.4736
380.7802
525.8238
0.100112 0.173399 0.248847
227.516
240.464
286.8459
318.3089
424.0489
499.6127
0.100112 0.173399 -0.311058
248.2596
249.0317
290.779
291.2355
465.1363
465.225
0.100112 0.288999 0.0
201.7737
218.1755
341.1957
419.0986
455.714
525.5246
0.100112 0.288999 0.062212
202.553
224.8687
344.0872
421.6422
448.0393
527.5093
0.100112 0.288999 0.124423
210.4992
240.8489
346.8686
417.885
441.9708
529.9565
0.100112 0.288999 0.186635
229.9182
261.2774
342.1312
390.4046
460.5869
528.1362
0.100112 0.288999 0.248847
257.8156
280.9209
331.1635
358.3777
484.2748
519.8656
0.100112 0.288999 -0.311058
282.1594
283.5713
331.5372
332.8247
504.7355
505.2895
0.100112 0.404598 0.0
257.5498
262.7079
383.5222
475.0382
484.6914
516.1157
0.100112 0.404598 0.062212
251.831
270.1936
383.1012
461.4723
487.3356
526.671
0.100112 0.404598 0.124423
246.6784
284.586
378.3794
432.9861
500.3505
540.8001
0.100112 0.404598 0.186635
250.7552
302.6903
364.3454
403.693
517.9258
549.6604
0.100112 0.404598 0.248847
267.673
313.8183
347.5227
379.3983
534.4985
551.6608
0.100112 0.404598 -0.311058
293.3956
293.9311
358.1529
358.6853
546.3788
546.4158
0.100112 0.520198 0.0
274.8709
307.6278
404.1313
448.3919
502.6712
545.6732
0.100112 0.520198 0.062212
274.9875
306.2082
399.2481
440.9949
509.8569
550.3267
0.100112 0.520198 0.124423
270.5545
311.55
382.7299
426.0739
526.3092
559.9496
0.100112 0.520198 0.186635
266.3608
326.7805
356.1873
409.9439
544.5413
568.3012
0.100112 0.520198 0.248847
273.1648
320.5963
351.324
392.1079
559.5653
571.8998
0.100112 0.520198 -0.311058
292.0274
293.3285
371.851
372.2371
568.6696
569.3902
0.200224 0.346799 0.0
256.4445
293.32
376.2308
481.4788
486.4845
489.8527
0.200224 0.346799 0.062212
250.9879
297.1274
382.5451
455.6328
488.2557
509.7885
0.200224 0.346799 0.124423
242.9171
307.0433
393.0232
422.0877
494.7618
526.5395
0.200224 0.346799 0.186635
244.2806
317.435
389.4239
396.4417
506.826
535.9728
0.200224 0.346799 0.248847
259.7268
312.2777
373.3145
390.7907
521.0229
537.8209
0.200224 0.346799 -0.311058
285.5647
286.5653
379.6907
380.4135
532.3411
532.4508
0.200224 0.462398 0.0
308.6425
337.1258
419.1534
448.7756
490.0371
524.2491
0.200224 0.462398 0.062212
297.3505
342.6221
417.7322
439.2548
500.5554
527.4077
0.200224 0.462398 0.124423
277.5174
350.1278
396.9571
440.448
515.3172
536.4232
0.200224 0.462398 0.186635
263.8813
338.5469
388.8869
440.0043
529.2646
546.0728
0.200224 0.462398 0.248847
264.3671
307.9356
401.8895
431.7829
541.5519
551.0702
0.200224 0.462398 -0.311058
280.0244
280.5634
417.9784
418.1099
549.3131
549.5853
0.200224 0.577998 0.0
337.5047
349.5993
423.4198
441.8491
487.2753
536.5813
0.200224 0.577998 0.062212
320.8863
361.0812
401.933
453.9696
495.1969
538.993
0.200224 0.577998 0.124423
296.279
368.2999
376.647
460.8425
513.081
545.481
0.200224 0.577998 0.186635
276.084
332.7975
394.4337
457.4715
531.9342
552.7811
0.200224 0.577998 0.248847
268.453
300.4989
413.3491
446.8087
546.6107
556.7943
0.200224 0.577998 -0.311058
276.6506
277.7972
431.3545
431.5387
554.7469
555.3112
0.300336 0.520198 0.0
355.1177
398.3425
407.8311
451.1357
477.8187
524.726
0.300336 0.520198 0.062212
341.1928
385.9352
407.636
461.7796
489.757
523.6621
0.300336 0.520198 0.124423
313.2195
353.8805
417.2213
479.292
510.1248
522.2974
0.300336 0.520198 0.186635
286.9283
319.1722
431.9068
485.7602
526.4136
526.8687
0.300336 0.520198 0.248847
271.5134
289.8039
448.6658
478.6105
534.7037
536.7934
0.300336 0.520198 -0.311058
272.1939
272.5804
464.9892
465.0248
539.1823
539.2284
P	=	2500.21	V	=	96.83882	E	=	-655.33574908
0.0 0.0 0.0
-0.0
-0.0
0.0
301.2396
301.2396
628.7119
0.0 0.0 0.062239
46.1012
46.1012
111.2854
297.2532
297.2532
623.2224
0.0 0.0 0.124478
90.9718
90.9718
218.0838
285.4394
285.4394
606.3191
0.0 0.0 0.186717
133.6028
133.6028
266.2573
266.2573
316.3706
576.8951
0.0 0.0 0.248956
173.2288
173.2288
240.4899
240.4899
402.9554
533.6628
0.0 0.0 -0.311194
209.1418
209.1418
209.1418
209.1418
475.7129
475.7129
0.0 0.115576 0.0
85.9334
90.0778
196.7052
317.2229
348.3601
618.9166
0.0 0.115576 0.062239
101.8623
111.4844
217.3178
313.5754
344.3776
613.94
0.0 0.115576 0.124478
129.9701
152.1726
274.1429
302.7089
332.6707
598.6599
0.0 0.115576 0.186717
164.1828
189.5757
284.9363
313.3038
347.5974
572.196
0.0 0.115576 0.248956
199.0322
225.0365
260.9523
288.3396
419.329
533.5836
0.0 0.115576 -0.311194
231.8554
231.8554
258.3821
258.3821
482.3724
482.3724
0.0 0.231152 0.0
167.0843
167.4894
352.8175
360.133
443.5256
590.9186
0.0 0.231152 0.062239
174.5934
178.0743
349.7505
370.2335
438.2149
588.3918
0.0 0.231152 0.124478
194.4648
205.6638
340.522
396.0253
424.0792
580.3687
0.0 0.231152 0.186717
221.309
242.7
325.2084
393.7098
438.7703
565.8123
0.0 0.231152 0.248956
250.4802
283.4712
304.2991
362.019
477.645
543.742
0.0 0.231152 -0.311194
278.859
278.859
324.2192
324.2192
513.9362
513.9362
0.0 0.346729 0.0
221.3444
240.9001
387.8447
471.4973
528.7637
549.3598
0.0 0.346729 0.062239
227.645
243.1084
385.099
476.9326
510.8391
562.411
0.0 0.346729 0.124478
244.7396
252.3974
376.8257
467.6039
505.6846
575.4333
0.0 0.346729 0.186717
268.5615
272.7969
363.0463
430.5337
527.3826
581.0947
0.0 0.346729 0.248956
295.0075
304.6197
344.1164
387.9108
550.0337
578.5619
0.0 0.346729 -0.311194
320.9324
320.9324
344.5163
344.5163
567.8914
567.8914
0.0 0.462305 0.0
250.7565
300.8839
411.0527
504.3167
531.9326
580.1157
0.0 0.462305 0.062239
256.5676
297.7697
408.3521
489.7385
540.605
587.3158
0.0 0.462305 0.124478
272.5727
293.2712
400.2717
458.6177
558.9272
600.1885
0.0 0.462305 0.186717
295.3268
296.5495
386.92
420.575
579.4601
609.7848
0.0 0.462305 0.248956
313.218
320.946
368.6273
380.3436
596.9924
612.8857
0.0 0.462305 -0.311194
342.7085
342.7085
346.1558
346.1558
608.5606
608.5606
0.0 -0.577881 0.0
259.5594
328.8079
418.9662
480.4467
550.6091
596.2151
0.0 -0.577881 0.062239
265.2208
323.2557
416.2428
470.0822
558.0926
601.4814
0.0 -0.577881 0.124478
280.917
312.5619
408.1266
443.9993
575.8837
612.2536
0.0 -0.577881 0.186717
303.4335
307.9219
394.781
409.7751
595.7657
621.426
0.0 -0.577881 0.248956
316.8782
328.9543
373.2234
376.541
612.0974
625.2391
0.0 -0.577881 -0.311194
340.1647
340.1647
354.1236
354.1236
622.2101
622.2101
0.100092 0.173364 0.0
146.4159
164.1851
297.4195
365.8186
409.7543
599.9899
0.100092 0.173364 0.062239
158.1729
171.4901
307.7546
365.6802
405.0105
596.4082
0.100092 0.173364 0.124478
186.9804
190.822
325.0205
374.6645
391.1172
585.3729
0.100092 0.173364 0.186717
216.8361
222.758
321.9067
369.1023
410.5585
566.1753
0.100092 0.173364 0.248956
244.4578
257.6027
307.7347
340.8658
457.1285
538.1344
0.100092 0.173364 -0.311194
267.1071
267.1071
311.5321
311.5321
501.2548
501.2548
0.100092 0.28894 0.0
216.785
234.0751
366.1362
451.0289
489.1707
564.9292
0.100092 0.28894 0.062239
217.667
241.1543
369.2266
453.5966
481.0414
567.2549
0.100092 0.28894 0.124478
226.1111
258.1582
372.1356
448.0199
476.0057
570.2303
0.100092 0.28894 0.186717
246.5571
280.1834
366.9257
417.9966
496.2078
568.6341
0.100092 0.28894 0.248956
275.9909
301.4924
355.1596
383.1298
521.528
560.0513
0.100092 0.28894 -0.311194
302.962
302.962
355.6982
355.6982
543.9706
543.9706
0.100092 0.404517 0.0
276.6208
281.7464
411.3024
510.6104
520.2074
554.914
0.100092 0.404517 0.062239
270.395
289.9366
410.8301
494.9675
524.3588
566.2352
0.100092 0.404517 0.124478
265.0238
305.287
405.65
464.2836
538.6059
581.7542
0.100092 0.404517 0.186717
269.2331
324.6123
390.5107
432.9038
557.5774
591.5734
0.100092 0.404517 0.248956
286.8673
336.3484
372.8454
406.7167
575.4516
593.8243
0.100092 0.404517 -0.311194
314.6167
314.6167
384.3917
384.3917
588.2158
588.2158
0.100092 0.520093 0.0
295.5045
329.4997
433.5878
480.6449
539.7643
587.2098
0.100092 0.520093 0.062239
295.2939
328.3798
428.1567
472.9143
547.7232
592.2217
0.100092 0.520093 0.124478
290.3342
334.4956
410.1219
457.2602
565.8405
602.6867
0.100092 0.520093 0.186717
285.9751
350.6876
381.8011
440.0906
585.8171
611.7593
0.100092 0.520093 0.248956
293.0877
343.8496
377.1754
420.9289
602.266
615.5629
0.100092 0.520093 -0.311194
314.0423
314.0423
399.3621
399.3621
612.4898
612.4898
0.200184 0.346729 0.0
275.1084
314.3098
403.2925
516.5495
524.1282
525.809
0.200184 0.346729 0.062239
269.3141
318.3621
410.0759
488.6035
526.03
547.5474
0.200184 0.346729 0.124478
260.7159
328.8835
421.3493
452.4665
533.0053
566.0264
0.200184 0.346729 0.186717
262.0664
339.8043
417.4761
425.0314
545.9345
576.6029
0.200184 0.346729 0.248956
278.3542
334.1432
400.2809
418.9302
561.1479
578.9153
0.200184 0.346729 -0.311194
306.2791
306.2791
407.4084
407.4084
573.2797
573.2797
0.200184 0.462305 0.0
330.6172
361.6199
449.0512
480.9645
526.0014
564.3269
0.200184 0.462305 0.062239
318.6353
367.3791
447.4882
470.8392
537.6496
567.5073
0.200184 0.462305 0.124478
297.6158
375.0572
425.4613
472.2916
554.1146
576.8879
0.200184 0.462305 0.186717
283.1697
362.3844
417.3035
472.0453
569.4019
587.3191
0.200184 0.462305 0.248956
283.6258
330.1047
431.3138
463.3303
582.8376
592.8434
0.200184 0.462305 -0.311194
300.7191
300.7191
448.6333
448.6333
591.2999
591.2999
0.200184 0.577881 0.0
361.3093
375.2585
453.4725
473.4217
522.9007
577.4518
0.200184 0.577881 0.062239
343.5949
387.459
430.3201
486.7276
531.4851
579.9312
0.200184 0.577881 0.124478
317.3597
394.3241
404.1059
494.5232
550.9622
586.7346
0.200184 0.577881 0.186717
296.1009
356.5751
423.2175
491.2027
571.6277
594.581
0.200184 0.577881 0.248956
288.3133
322.4016
443.7115
479.8901
587.7983
598.986
0.200184 0.577881 -0.311194
297.7761
297.7761
463.3456
463.3456
597.075
597.075
0.300276 0.520093 0.0
380.0918
427.791
436.5932
483.1022
511.9566
564.9201
0.300276 0.520093 0.062239
365.1743
413.127
437.6565
494.6548
524.8674
563.6816
0.300276 0.520093 0.124478
335.3519
378.6859
447.9573
513.9076
547.0832
561.9135
0.300276 0.520093 0.186717
307.6201
341.9001
463.7008
521.6361
565.6069
565.8951
0.300276 0.520093 0.248956
291.6582
311.0546
481.8894
514.3314
574.7794
576.7993
0.300276 0.520093 -0.311194
292.7841
292.7841
499.6754
499.6754
579.6591
579.6591
P	=	2999.94	V	=	92.89352	E	=	-655.26218407
0.0 0.0 0.0
-0.0
-0.0
0.0
319.772
319.772
668.3133
0.0 0.0 0.062255
48.8614
48.8614
118.0897
315.5471
315.5471
662.4118
0.0 0.0 0.12451
96.4052
96.4052
231.4073
303.0073
303.0073
644.2679
0.0 0.0 0.186766
141.5802
141.5802
282.6041
282.6041
335.694
612.7662
0.0 0.0 0.249021
183.6168
183.6168
255.1618
255.1618
427.6019
566.6162
0.0 0.0 -0.311276
221.7874
221.7874
221.7874
221.7874
504.9175
504.9175
0.0 0.115556 0.0
91.3389
95.537
209.243
336.5501
369.3813
657.7373
0.0 0.115556 0.062255
108.0242
117.8797
231.2857
332.6777
365.1281
652.3993
0.0 0.115556 0.12451
137.7917
160.6059
291.6293
321.1294
352.6269
636.0424
0.0 0.115556 0.186766
174.0113
200.2411
302.2191
331.9286
369.4381
607.7977
0.0 0.115556 0.249021
210.9281
237.9043
276.6927
305.2853
445.442
566.7022
0.0 0.115556 -0.311276
245.7577
245.7577
273.3675
273.3675
512.3093
512.3093
0.0 0.231113 0.0
177.2661
177.5742
373.9979
382.8458
469.989
627.4785
0.0 0.231113 0.062255
185.1951
188.5715
370.7328
393.5736
464.2769
624.8318
0.0 0.231113 0.12451
206.1746
217.4332
360.9081
420.6716
449.3467
616.4165
0.0 0.231113 0.186766
234.5189
256.428
344.6108
416.4025
466.5056
601.1069
0.0 0.231113 0.249021
265.3469
299.4758
322.3833
382.6298
507.7699
577.8138
0.0 0.231113 -0.311276
295.3907
295.3907
342.5585
342.5585
546.2586
546.2586
0.0 0.346669 0.0
234.8657
254.6616
411.0278
500.6934
560.724
582.5407
0.0 0.346669 0.062255
241.4728
257.0387
408.0898
506.1382
541.686
596.7298
0.0 0.346669 0.12451
259.4248
266.9699
399.2498
494.8329
537.3062
610.9068
0.0 0.346669 0.186766
284.4994
288.6512
384.5605
455.393
560.3272
617.1753
0.0 0.346669 0.249021
312.4094
322.3317
364.4315
410.2827
584.3702
614.6284
0.0 0.346669 -0.311276
339.8401
339.8401
364.4602
364.4602
603.3399
603.3399
0.0 0.462226 0.0
266.0474
317.4272
435.7352
533.9257
564.4517
615.6786
0.0 0.462226 0.062255
272.1124
314.3416
432.8196
518.446
573.7441
623.3513
0.0 0.462226 0.12451
288.8636
310.0454
424.1257
485.4938
593.2851
637.177
0.0 0.462226 0.186766
312.7781
313.9423
409.834
445.2946
615.1857
647.5491
0.0 0.462226 0.249021
331.807
339.8108
390.3476
402.8109
633.9269
650.9323
0.0 0.462226 -0.311276
363.05
363.05
366.495
366.495
646.3146
646.3146
0.0 -0.577782 0.0
275.3609
346.6632
444.208
508.2614
584.1518
632.9398
0.0 -0.577782 0.062255
281.2621
341.0562
441.2538
497.4128
592.0865
638.5605
0.0 -0.577782 0.12451
297.6768
330.3325
432.4884
470.0493
611.0239
650.1131
0.0 -0.577782 0.186766
321.3367
325.982
418.1701
434.0493
632.291
659.9813
0.0 -0.577782 0.249021
335.7903
348.2691
395.5013
398.7199
649.8399
664.0651
0.0 -0.577782 -0.311276
360.5447
360.5447
374.916
374.916
660.7587
660.7587
0.100075 0.173335 0.0
155.3588
173.8956
316.1084
388.2474
434.1292
637.2866
0.100075 0.173335 0.062255
167.5267
181.6299
326.9979
388.2097
429.0285
633.4839
0.100075 0.173335 0.12451
197.632
202.0896
344.7691
398.266
414.1101
621.7864
0.100075 0.173335 0.186766
229.6139
235.3594
341.0534
390.536
436.6063
601.4683
0.100075 0.173335 0.249021
258.8548
272.3287
325.7718
360.4138
485.9877
571.7985
0.100075 0.173335 -0.311276
282.8206
282.8206
329.2897
329.2897
532.7473
532.7473
0.100075 0.288891 0.0
229.4279
247.9415
388.0409
479.1493
518.4923
599.3785
0.100075 0.288891 0.062255
230.3401
255.3702
391.2472
481.6507
509.9529
602.0142
0.100075 0.288891 0.12451
239.2315
273.2611
394.1917
474.1856
505.8996
605.4852
0.100075 0.288891 0.186766
260.8453
296.4819
388.5536
442.0478
527.4445
604.0548
0.100075 0.288891 0.249021
291.9481
318.9599
375.9685
405.1657
554.2811
595.0993
0.100075 0.288891 -0.311276
320.4547
320.4547
376.3497
376.3497
578.086
578.086
0.100075 0.404447 0.0
293.1011
297.4939
435.6343
541.8866
551.0661
588.8633
0.100075 0.404447 0.062255
285.9543
306.7887
435.0938
524.0965
556.8213
600.805
0.100075 0.404447 0.12451
280.3248
323.1338
429.4974
491.4535
572.0939
617.4824
0.100075 0.404447 0.186766
284.9664
343.5232
413.3371
458.3768
592.1972
628.1395
0.100075 0.404447 0.249021
303.6962
355.7986
394.7829
430.7362
611.1668
630.6587
0.100075 0.404447 -0.311276
332.9443
332.9443
407.0709
407.0709
624.7321
624.7321
0.100075 0.520004 0.0
313.1374
347.5218
459.3465
508.4804
572.5129
623.3765
0.100075 0.520004 0.062255
312.6002
346.8222
453.3881
500.5777
580.9958
628.6859
0.100075 0.520004 0.12451
307.0337
353.9991
433.9636
484.4823
600.3225
639.8526
0.100075 0.520004 0.186766
302.6535
371.2726
404.032
466.4257
621.6752
649.5809
0.100075 0.520004 0.249021
310.4093
363.9704
399.4597
446.014
639.3053
653.6438
0.100075 0.520004 -0.311276
332.5977
332.5977
423.0316
423.0316
650.3045
650.3045
0.20015 0.346669 0.0
290.6321
332.6085
427.029
547.0485
557.1211
557.2813
0.20015 0.346669 0.062255
284.5818
336.8408
434.1789
517.1617
559.2687
580.5569
0.20015 0.346669 0.12451
275.6757
347.8365
446.0862
478.7316
566.5605
600.627
0.20015 0.346669 0.186766
277.3008
359.2105
441.8156
450.0049
580.1049
612.1896
0.20015 0.346669 0.249021
294.5866
353.1764
423.8337
443.5612
596.1095
614.8222
0.20015 0.346669 -0.311276
323.9687
323.9687
431.3678
431.3678
608.9146
608.9146
0.20015 0.462226 0.0
348.9085
382.7911
475.1978
508.8332
557.3415
599.4441
0.20015 0.462226 0.062255
336.4013
388.7974
473.3353
498.3579
570.0488
602.6286
0.20015 0.462226 0.12451
314.4915
396.6503
450.1798
500.2001
588.0321
612.2748
0.20015 0.462226 0.186766
299.5892
383.0164
442.0071
500.0851
604.3687
623.3142
0.20015 0.462226 0.249021
300.3139
349.2002
456.8544
490.8684
618.6039
629.2187
0.20015 0.462226 -0.311276
318.3733
318.3733
475.2406
475.2406
627.5826
627.5826
0.20015 0.577782 0.0
381.2208
397.3219
479.3704
500.9197
554.0956
613.1712
0.20015 0.577782 0.062255
362.7339
410.167
454.7435
515.3843
563.2342
615.7052
0.20015 0.577782 0.12451
335.2614
416.7248
427.9501
524.0953
584.026
622.7629
0.20015 0.577782 0.186766
313.201
377.076
448.2746
520.73
606.1342
630.9997
0.20015 0.577782 0.249021
305.2994
341.2506
470.0614
508.6636
623.4623
635.5954
0.20015 0.577782 -0.311276
315.3853
315.3853
490.9847
490.9847
633.451
633.451
0.300224 0.520004 0.0
401.2004
453.1722
461.3162
510.9414
541.5742
600.212
0.300224 0.520004 0.062255
385.507
436.5065
463.6301
523.3442
555.4626
598.8238
0.300224 0.520004 0.12451
354.2526
400.0622
474.7639
544.1762
579.4068
596.6539
0.300224 0.520004 0.186766
325.3468
361.493
491.5049
552.9585
599.3607
600.2986
0.300224 0.520004 0.249021
308.8212
329.2419
510.847
545.4157
609.3979
611.3857
0.300224 0.520004 -0.311276
310.1126
310.1126
529.8017
529.8017
614.4825
614.4825
P	=	3200.0	V	=	91.49602	E	=	-655.23274237
0.0 0.0 0.0
-0.0
-0.0
0.0
326.592
326.592
683.0793
0.0 0.0 0.062262
49.9459
49.9459
120.7112
322.2847
322.2847
677.0145
0.0 0.0 0.124523
98.5316
98.5316
236.5308
309.4955
309.4955
658.3953
0.0 0.0 0.186785
144.6788
144.6788
288.676
288.676
343.0939
626.1345
0.0 0.0 0.249046
187.6081
187.6082
260.662
260.662
436.9765
578.9536
0.0 0.0 -0.311308
226.585
226.585
226.585
226.585
515.934
515.934
0.0 0.115549 0.0
93.3467
97.581
213.8555
343.6803
377.136
672.205
0.0 0.115549 0.062262
110.3429
120.2912
236.4613
339.7273
372.792
666.7276
0.0 0.115549 0.124523
140.7598
163.8052
298.1863
327.9399
360.0203
649.9667
0.0 0.115549 0.186785
177.7598
204.2743
308.6406
338.8461
377.6857
621.0776
0.0 0.115549 0.249046
215.46
242.7434
282.5903
311.6015
455.3017
579.1014
0.0 0.115549 -0.311308
251.017
251.017
278.9744
278.9744
523.5715
523.5715
0.0 0.231097 0.0
181.0227
181.3773
381.862
391.1967
479.7742
641.0817
0.0 0.231097 0.062262
189.1092
192.5125
378.5212
402.1687
473.9323
638.3958
0.0 0.231097 0.124523
210.5164
221.8156
368.477
429.7642
458.7607
629.8534
0.0 0.231097 0.186785
239.4548
261.5081
351.8339
424.8281
476.8365
614.2929
0.0 0.231097 0.249046
270.9347
305.3842
329.1505
390.2755
519.0271
590.5684
0.0 0.231097 -0.311308
301.6052
301.6052
349.3392
349.3392
558.3616
558.3616
0.0 0.346646 0.0
239.7996
259.9115
419.6773
511.4375
572.5291
594.8643
0.0 0.346646 0.062262
246.5226
262.3258
416.6674
516.895
553.1016
609.4777
0.0 0.346646 0.124523
264.8062
272.4302
407.6174
504.935
548.9769
624.1244
0.0 0.346646 0.186785
290.3778
294.518
392.5937
464.6258
572.5306
630.6632
0.0 0.346646 0.249046
318.8723
328.8533
372.0205
418.5728
597.1514
628.1289
0.0 0.346646 -0.311308
346.8939
346.8939
371.8192
371.8192
616.5882
616.5882
0.0 0.462195 0.0
271.6063
323.7355
444.9473
544.9331
576.4408
628.7788
0.0 0.462195 0.062262
277.7685
320.6441
441.96
529.1114
585.9728
636.6508
0.0 0.462195 0.124523
294.8049
316.3772
433.0516
495.4754
605.9953
650.8825
0.0 0.462195 0.186785
319.1661
320.4463
418.4077
454.4709
628.457
661.6054
0.0 0.462195 0.249046
338.713
346.7544
398.447
411.1439
647.7053
665.1438
0.0 0.462195 -0.311308
370.5913
370.5913
374.0325
374.0325
660.4297
660.4297
0.0 -0.577743 0.0
281.1042
353.4396
453.6214
518.6297
596.5283
646.4509
0.0 -0.577743 0.062262
287.0972
347.8025
450.5949
507.594
604.648
652.2127
0.0 -0.577743 0.124523
303.7829
337.0416
441.6105
479.738
624.0594
664.0894
0.0 -0.577743 0.186785
327.8736
332.7638
426.9272
443.0632
645.905
674.2799
0.0 -0.577743 0.249046
342.8539
355.3535
403.772
406.9834
663.9554
678.5387
0.0 -0.577743 -0.311308
368.1259
368.1259
382.6003
382.6003
675.1774
675.1774
0.100068 0.173323 0.0
158.7168
177.4843
322.9776
396.5382
443.1588
651.1702
0.100068 0.173323 0.062262
171.0318
185.3831
334.0786
396.5527
437.9353
647.2881
0.100068 0.173323 0.124523
201.6048
206.2841
352.0541
407.0493
422.6532
635.3566
0.100068 0.173323 0.186785
234.4104
240.0355
348.1651
398.502
446.3359
614.647
0.100068 0.173323 0.249046
264.2886
277.787
332.514
367.664
496.7978
584.3994
0.100068 0.173323 -0.311308
288.7308
288.7308
335.8754
335.8754
544.5522
544.5522
0.100068 0.288872 0.0
234.2354
253.0065
396.1397
489.5377
529.3676
612.1723
0.100068 0.288872 0.062262
235.123
260.5777
399.3951
492.019
520.6845
614.9355
0.100068 0.288872 0.124523
244.1165
278.8155
402.3733
483.9107
516.964
618.6241
0.100068 0.288872 0.186785
266.1086
302.5139
396.6043
450.9866
539.0332
617.2925
0.100068 0.288872 0.249046
297.824
325.4637
383.72
413.3333
566.4814
608.2145
0.100068 0.288872 -0.311308
326.954
326.954
384.0075
384.0075
590.8367
590.8367
0.100068 0.40442 0.0
299.1065
303.5017
444.6805
553.4574
562.5093
601.4035
0.100068 0.40442 0.062262
291.7577
313.0434
444.1278
534.9015
568.8097
613.6094
0.100068 0.40442 0.124523
286.026
329.7076
438.4024
501.5323
584.4635
630.7663
0.100068 0.40442 0.186785
290.7811
350.4869
421.8672
467.8285
605.0248
641.7837
0.100068 0.40442 0.249046
309.89
362.984
402.9436
439.6595
624.4602
644.4296
0.100068 0.40442 -0.311308
339.7051
339.7051
415.4946
415.4946
638.3721
638.3721
0.100068 0.519969 0.0
319.5792
354.3533
468.944
518.8249
584.629
636.7005
0.100068 0.519969 0.062262
318.9341
353.7803
462.8019
510.8533
593.3134
642.1275
0.100068 0.519969 0.124523
313.1897
361.2627
442.8705
494.5934
613.115
653.5844
0.100068 0.519969 0.186785
308.8108
378.8844
412.321
476.2179
635.025
663.6135
0.100068 0.519969 0.249046
316.8004
371.4223
407.7156
455.3393
653.1382
667.8371
0.100068 0.519969 -0.311308
339.4528
339.4528
431.8121
431.8121
664.4356
664.4356
0.200136 0.346646 0.0
296.5499
339.2736
435.8028
558.4488
568.7137
569.505
0.200136 0.346646 0.062262
290.3768
343.5731
443.1007
527.7969
571.5223
592.8372
0.200136 0.346646 0.124523
281.2861
354.7552
455.2706
488.5108
578.9362
613.5297
0.200136 0.346646 0.186785
282.934
366.3331
450.8592
459.3013
592.7423
625.4897
0.200136 0.346646 0.249046
300.5471
360.1981
432.5619
452.7343
609.102
628.2513
0.200136 0.346646 -0.311308
330.4759
330.4759
440.271
440.271
622.2156
622.2156
0.200136 0.462195 0.0
355.829
390.566
484.8857
519.1392
569.0296
612.4133
0.200136 0.462195 0.062262
343.0898
396.6666
482.9339
508.5498
582.0974
615.6045
0.200136 0.462195 0.124523
320.7962
404.5623
459.3748
510.5623
600.6072
625.3828
0.200136 0.462195 0.186785
305.6715
390.5986
451.1565
510.5103
617.3375
636.7009
0.200136 0.462195 0.249046
306.461
356.2283
466.3051
501.1011
631.9128
642.7866
0.200136 0.462195 -0.311308
324.8678
324.8678
485.1079
485.1079
641.1191
641.1191
0.200136 0.577743 0.0
388.6967
405.4687
488.9676
511.1449
565.6902
626.3596
0.200136 0.577743 0.062262
369.8607
418.5922
463.8022
526.0306
575.0295
628.9076
0.200136 0.577743 0.124523
341.8919
425.0241
436.7789
535.0819
596.3119
636.0639
0.200136 0.577743 0.186785
319.5082
384.6546
457.5341
531.696
618.9807
644.4866
0.200136 0.577743 0.249046
311.5548
348.2045
479.8034
519.3395
636.7678
649.2133
0.200136 0.577743 -0.311308
321.8734
321.8734
501.2228
501.2228
647.0222
647.0222
0.300204 0.519969 0.0
409.0865
462.6204
470.4643
521.2477
552.605
613.2657
0.300204 0.519969 0.062262
393.0861
445.1381
473.2995
533.9735
566.8393
611.8116
0.300204 0.519969 0.124523
361.2643
407.9372
484.7013
555.4035
591.4187
609.4792
0.300204 0.519969 0.186785
331.8931
368.6983
501.7809
564.5721
611.9216
613.0303
0.300204 0.519969 0.249046
315.1452
335.9302
521.5498
556.9284
622.2692
624.2799
0.300204 0.519969 -0.311308
316.4918
316.4918
540.9499
540.9499
627.4659
627.4659
P	=	3399.93	V	=	90.18174	E	=	-655.2032642
0.0 0.0 0.0
-0.0
0.0
0.0
333.0115
333.0115
697.4165
0.0 0.0 0.062267
50.9428
50.9428
123.1865
328.6071
328.6071
691.1802
0.0 0.0 0.124534
100.4985
100.4985
241.4211
315.5412
315.5412
672.0807
0.0 0.0 0.186801
147.5602
147.5602
294.2991
294.2991
350.2411
639.092
0.0 0.0 0.249069
191.322
191.322
265.7481
265.7481
446.1015
590.9483
0.0 0.0 -0.311336
231.0344
231.0344
231.0344
231.0344
526.6739
526.6739
0.0 0.115543 0.0
95.2716
99.5583
218.3834
350.4009
384.5126
686.2496
0.0 0.115543 0.062267
112.5732
122.5667
241.553
346.3568
380.0608
680.6264
0.0 0.115543 0.124534
143.5905
166.8502
304.6144
334.3105
366.9856
663.4544
0.0 0.115543 0.186801
181.309
208.1496
314.6188
345.3328
385.7348
633.9368
0.0 0.115543 0.249069
219.7198
247.372
288.0757
317.5272
464.9104
591.1269
0.0 0.115543 -0.311336
255.9273
255.9273
284.2787
284.2787
534.523
534.523
0.0 0.231085 0.0
184.6992
185.0349
389.2692
399.3977
489.1627
654.2756
0.0 0.231085 0.062267
192.9396
196.3414
385.8478
410.6293
483.1726
651.5433
0.0 0.231085 0.124534
214.7501
226.1362
375.5763
438.6938
467.7642
642.8519
0.0 0.231085 0.186801
244.2207
266.5209
358.5925
432.8176
486.978
627.0168
0.0 0.231085 0.249069
276.2602
311.1435
335.4882
397.5321
530.0016
602.8671
0.0 0.231085 -0.311336
307.4617
307.4617
355.845
355.845
570.0721
570.0721
0.0 0.346628 0.0
244.6696
264.9763
427.7977
521.8843
583.9398
606.7941
0.0 0.346628 0.062267
251.5067
267.4572
424.711
527.3375
564.1578
621.7952
0.0 0.346628 0.124534
270.1015
277.7944
415.4459
514.5864
560.4251
636.8465
0.0 0.346628 0.186801
296.108
300.3045
400.1036
473.4044
584.478
643.599
0.0 0.346628 0.249069
325.0835
335.2221
379.1422
426.468
609.57
641.0747
0.0 0.346628 -0.311336
353.5779
353.5779
378.8981
378.8981
629.3537
629.3537
0.0 0.462171 0.0
277.1077
329.834
453.5786
555.5589
587.9113
641.5616
0.0 0.462171 0.062267
283.3616
326.7308
450.5104
539.3599
597.7188
649.5924
0.0 0.462171 0.124534
300.6589
322.5028
441.3769
504.9954
618.2548
664.1381
0.0 0.462171 0.186801
325.4083
326.7747
426.4039
463.1853
641.2655
675.1224
0.0 0.462171 0.249069
345.4344
353.4511
406.0477
419.0894
660.9704
678.7725
0.0 0.462171 -0.311336
377.8623
377.8623
381.1937
381.1937
673.9779
673.9779
0.0 -0.577713 0.0
286.7883
359.998
462.4378
528.6202
608.2818
659.6887
0.0 -0.577713 0.062267
292.8652
354.3095
459.3271
517.359
616.6016
665.5606
0.0 -0.577713 0.124534
309.7954
343.4968
450.1093
488.9489
636.5053
677.6757
0.0 -0.577713 0.186801
334.2609
339.325
435.0867
451.6009
658.9271
688.0859
0.0 -0.577713 0.249069
349.7201
362.1915
411.659
414.7375
677.4671
692.4432
0.0 -0.577713 -0.311336
375.4475
375.4475
389.9068
389.9068
688.9929
688.9929
0.100063 0.173314 0.0
161.9444
181.0011
329.654
404.4723
451.7818
664.6407
0.100063 0.173314 0.062267
174.4234
189.0578
340.9562
404.5575
446.4194
660.6732
0.100063 0.173314 0.124534
205.4926
210.3683
359.0131
415.6076
430.7462
648.4934
0.100063 0.173314 0.186801
239.0257
244.6168
354.8578
406.0248
455.8787
627.3824
0.100063 0.173314 0.249069
269.4423
283.0526
338.8714
374.5393
507.3398
596.5745
0.100063 0.173314 -0.311336
294.2873
294.2873
342.1808
342.1808
555.9932
555.9932
0.100063 0.288857 0.0
238.872
258.012
403.8641
499.6084
539.7994
624.5683
0.100063 0.288857 0.062267
239.7787
265.7214
407.1552
502.0572
531.0048
627.4382
0.100063 0.288857 0.124534
248.9387
284.29
410.1217
493.1705
527.7994
631.2955
0.100063 0.288857 0.186801
271.304
308.3999
404.1903
459.4701
550.4041
630.0198
0.100063 0.288857 0.249069
303.5252
331.7005
391.0567
421.1121
578.3743
620.8261
0.100063 0.288857 -0.311336
333.1329
333.1329
391.3364
391.3364
603.1612
603.1612
0.100063 0.404399 0.0
305.0492
309.3102
453.2206
564.5526
573.5716
613.5772
0.100063 0.404399 0.062267
297.4426
319.1692
452.6405
545.2572
580.4325
625.9891
0.100063 0.404399 0.124534
291.623
336.1634
446.7555
511.1612
596.5012
643.5458
0.100063 0.404399 0.186801
296.4961
357.2943
429.8642
476.8264
617.5111
654.8696
0.100063 0.404399 0.249069
315.9236
369.8868
410.7134
448.1501
637.3461
657.6439
0.100063 0.404399 -0.311336
346.1928
346.1928
423.5523
423.5523
651.5163
651.5163
0.100063 0.519942 0.0
325.9407
360.9672
477.9594
528.8016
596.1443
649.7211
0.100063 0.519942 0.062267
325.1927
360.5015
471.6359
520.7182
605.05
655.235
0.100063 0.519942 0.124534
319.2503
368.2948
451.2183
504.2158
625.3546
666.9056
0.100063 0.519942 0.186801
314.8552
386.2668
420.1106
485.4986
647.833
677.1558
0.100063 0.519942 0.249069
323.0437
378.5073
415.6808
464.2099
666.4246
681.4914
0.100063 0.519942 -0.311336
346.0618
346.0618
440.2343
440.2343
678.0145
678.0145
0.200126 0.346628 0.0
302.2749
345.8703
444.19
569.2057
579.9276
581.4438
0.200126 0.346628 0.062267
296.0077
350.2387
451.6231
537.9136
583.4957
604.5982
0.200126 0.346628 0.124534
286.792
361.5916
464.0095
497.7957
591.0484
625.8693
0.200126 0.346628 0.186801
288.4845
373.2941
459.4656
468.1055
605.1145
638.2167
0.200126 0.346628 0.249069
306.3646
366.9346
440.9438
461.4318
621.7661
641.1514
0.200126 0.346628 -0.311336
336.7348
336.7348
448.7789
448.7789
635.0823
635.0823
0.200126 0.462171 0.0
362.5325
398.1955
494.1064
529.0933
580.0777
625.0436
0.200126 0.462171 0.062267
349.5901
404.3776
492.0624
518.3294
593.5631
628.2111
0.200126 0.462171 0.124534
326.9557
412.2997
468.1219
520.4349
612.6906
638.0359
0.200126 0.462171 0.186801
311.6392
397.9041
459.973
520.4224
629.8839
649.5788
0.200126 0.462171 0.249069
312.48
362.9835
475.4429
510.8665
644.8069
655.8587
0.200126 0.462171 -0.311336
331.1672
331.1672
494.5949
494.5949
654.2051
654.2051
0.200126 0.577713 0.0
395.9401
413.4254
498.23
520.8075
576.7034
639.1992
0.200126 0.577713 0.062267
376.8128
426.7664
472.4706
536.1519
586.2525
641.7394
0.200126 0.577713 0.124534
348.388
432.9304
445.327
545.5306
608.0467
648.9486
0.200126 0.577713 0.186801
325.709
391.8773
466.5101
542.1451
631.3066
657.5246
0.200126 0.577713 0.249069
317.7
354.887
489.2478
529.5713
649.5856
662.3719
0.200126 0.577713 -0.311336
328.19
328.19
511.1059
511.1059
660.127
660.127
0.300189 0.519942 0.0
416.7225
471.7374
479.3047
531.1076
563.068
625.9251
0.300189 0.519942 0.062267
400.4322
453.4794
482.6049
544.1436
577.6642
624.3865
0.300189 0.519942 0.124534
368.0811
415.5344
494.2733
566.1462
602.8972
621.8723
0.300189 0.519942 0.186801
338.2865
375.6592
511.714
575.6919
623.9859
625.3527
0.300189 0.519942 0.249069
321.3431
342.4296
531.922
568.002
634.7497
636.7304
0.300189 0.519942 -0.311336
322.7324
322.7324
551.7332
551.7332
640.0478
640.0478
P	=	3600.14	V	=	88.94218	E	=	-655.17377477
0.0 0.0 0.0
-0.0
0.0
0.0
339.261
339.261
711.3632
0.0 0.0 0.062272
51.9308
51.9308
125.5176
334.7691
334.7691
704.9448
0.0 0.0 0.124545
102.4119
102.4119
246.1032
321.4401
321.4401
685.3613
0.0 0.0 0.186817
150.3112
150.3112
299.7667
299.7667
357.203
651.6943
0.0 0.0 0.249089
194.8386
194.8386
270.6448
270.6448
455.0807
602.6881
0.0 0.0 -0.311362
235.2679
235.2679
235.268
235.268
537.2484
537.2484
0.0 0.115538 0.0
97.1237
101.365
222.7503
356.9652
391.6767
699.9044
0.0 0.115538 0.062272
114.6325
124.7675
246.3981
352.8372
387.1201
694.1308
0.0 0.115538 0.124545
146.2338
169.7876
310.7001
340.5419
373.7502
676.5555
0.0 0.115538 0.186817
184.6396
211.8619
320.4484
351.6146
393.4802
646.4597
0.0 0.115538 0.249089
223.7426
251.8085
293.3779
323.2566
474.2835
602.895
0.0 0.115538 -0.311362
260.6154
260.6154
289.3863
289.3863
545.2653
545.2653
0.0 0.231076 0.0
188.0556
188.5445
396.5448
407.2576
498.2671
667.0903
0.0 0.231076 0.062272
196.4402
200.0244
393.0451
418.6712
492.1306
664.3209
0.0 0.231076 0.124545
218.64
230.2952
382.5468
447.0803
476.5092
655.5079
0.0 0.231076 0.186817
248.6507
271.3533
365.2081
440.5174
496.6441
639.4341
0.0 0.231076 0.249089
281.2888
316.731
341.6452
404.5842
540.5628
614.8759
0.0 0.231076 -0.311362
313.0803
313.0803
362.1845
362.1845
581.457
581.457
0.0 0.346613 0.0
249.0841
269.8271
435.8141
531.8551
594.967
618.3755
0.0 0.346613 0.062272
256.0311
272.3983
432.6525
537.2557
574.8712
633.7576
0.0 0.346613 0.124545
274.9406
282.984
423.1711
523.8799
571.3559
649.2326
0.0 0.346613 0.186817
301.4191
305.8934
407.4913
481.9428
595.8587
656.21
0.0 0.346613 0.249089
330.9508
341.3829
386.0919
434.1742
621.4838
653.6726
0.0 0.346613 -0.311362
360.01
360.01
385.7867
385.7867
641.7051
641.7051
0.0 0.462151 0.0
282.0414
335.6749
462.1353
565.8788
598.8757
653.8213
0.0 0.462151 0.062272
288.3897
332.5898
458.9945
549.3393
608.9482
662.0456
0.0 0.462151 0.124545
305.9681
328.4252
449.6462
514.3455
629.966
676.9761
0.0 0.462151 0.186817
331.1636
332.8576
434.3252
471.7882
653.5208
688.2651
0.0 0.462151 0.249089
351.8683
359.7628
413.5036
426.8824
673.7179
692.0094
0.0 0.462151 -0.311362
384.8879
384.8879
388.0962
388.0962
687.0729
687.0729
0.0 -0.577689 0.0
291.8587
366.2805
471.1932
538.3288
619.5351
672.3341
0.0 -0.577689 0.062272
298.025
360.5608
468.011
526.9133
628.048
678.3582
0.0 -0.577689 0.124545
315.2254
349.703
458.578
498.085
648.4327
690.8017
0.0 -0.577689 0.186817
340.1311
345.5803
443.1985
460.1183
671.4261
701.4912
0.0 -0.577689 0.249089
356.2371
368.6257
419.4329
422.3635
690.4704
705.9361
0.0 -0.577689 -0.311362
382.4973
382.4973
396.953
396.953
702.3441
702.3441
0.100059 0.173307 0.0
165.0431
184.2922
335.9973
412.2797
460.1336
677.7272
0.100059 0.173307 0.062272
177.6817
192.4935
347.4514
412.4159
454.6257
673.6795
0.100059 0.173307 0.124545
209.2109
214.191
365.6627
423.8582
438.556
661.2734
0.100059 0.173307 0.186817
243.3757
248.9842
361.3797
413.282
464.9945
639.8035
0.100059 0.173307 0.249089
274.3514
288.0846
345.0859
381.1887
517.5163
608.4715
0.100059 0.173307 -0.311362
299.6152
299.6152
348.3084
348.3084
567.1423
567.1423
0.100059 0.288845 0.0
243.3134
262.6878
411.2678
509.3619
549.9166
636.603
0.100059 0.288845 0.062272
244.2309
270.5408
414.5997
511.7086
541.022
639.5913
0.100059 0.288845 0.124545
253.5285
289.4447
417.6075
502.051
538.2186
643.6367
0.100059 0.288845 0.186817
276.2332
313.9949
411.572
467.6621
561.2663
642.4261
0.100059 0.288845 0.249089
308.9645
337.7046
398.1922
428.6699
589.7979
633.1008
0.100059 0.288845 -0.311362
339.0864
339.0864
398.4643
398.4643
615.0947
615.0947
0.100059 0.404382 0.0
310.5163
314.8724
461.5572
575.1825
584.3115
625.3279
0.100059 0.404382 0.062272
302.7757
324.9437
460.9608
555.25
591.6164
637.9665
0.100059 0.404382 0.124545
296.9062
342.2558
454.9382
520.5072
608.0198
655.9547
0.100059 0.404382 0.186817
301.8977
363.775
437.6718
485.6106
629.452
667.5978
0.100059 0.404382 0.249089
321.66
376.5804
418.1897
456.4381
649.7223
670.4747
0.100059 0.404382 -0.311362
352.4461
352.4461
431.3489
431.3489
664.2173
664.2173
0.100059 0.51992 0.0
331.7238
367.3066
486.8598
538.4919
607.1481
662.2117
0.100059 0.51992 0.062272
330.913
366.923
480.3602
530.3453
616.2714
667.8459
0.100059 0.51992 0.124545
324.8757
374.9456
459.4735
513.6878
637.0684
679.7982
0.100059 0.51992 0.186817
320.5063
393.2705
427.7868
494.6485
660.112
690.3089
0.100059 0.51992 0.249089
328.9288
385.4569
423.265
472.8878
679.2019
694.7376
0.100059 0.51992 -0.311362
352.4131
352.4131
448.3615
448.3615
691.1315
691.1315
0.200117 0.346613 0.0
307.7562
352.1188
452.1131
579.6102
590.8132
593.0286
0.200117 0.346613 0.062272
301.3942
356.5528
459.6937
547.7011
595.0965
616.013
0.200117 0.346613 0.124545
292.0351
368.0855
472.3622
506.7671
602.7318
637.8548
0.200117 0.346613 0.186817
293.7495
379.9718
467.7536
476.6208
617.0044
650.5758
0.200117 0.346613 0.249089
311.9103
373.4655
448.9964
469.8874
633.9491
653.6555
0.200117 0.346613 -0.311362
342.7668
342.7668
457.0166
457.0166
647.5092
647.5092
0.200117 0.462151 0.0
368.9639
405.333
502.9559
538.7536
590.7035
637.2611
0.200117 0.462151 0.062272
355.789
411.6323
500.8803
527.7554
604.611
640.4199
0.200117 0.462151 0.124545
332.7853
419.671
476.5457
529.9737
624.3262
650.312
0.200117 0.462151 0.186817
317.269
404.9998
468.3539
530.0576
641.9485
662.0737
0.200117 0.462151 0.249089
318.191
369.5372
484.1731
520.3524
657.2173
668.5176
0.200117 0.462151 -0.311362
337.2169
337.2169
503.744
503.744
666.8372
666.8372
0.200117 0.577689 0.0
402.9013
420.8035
507.2157
530.2582
587.1849
651.5968
0.200117 0.577689 0.062272
383.4083
434.4228
480.9082
546.0374
596.9517
654.1523
0.200117 0.577689 0.124545
354.4983
440.6471
453.368
555.752
619.2668
661.45
0.200117 0.577689 0.186817
331.5197
398.9325
474.999
552.3622
643.1253
670.1836
0.200117 0.577689 0.249089
323.5013
361.3799
498.2474
539.5172
661.9155
675.1225
0.200117 0.577689 -0.311362
334.2462
334.2462
520.6179
520.6179
672.7804
672.7804
0.300176 0.51992 0.0
424.0795
480.2727
487.8664
540.5285
573.1452
638.2182
0.300176 0.51992 0.062272
407.4693
461.4997
491.3672
553.8871
588.1091
636.6152
0.300176 0.51992 0.124545
374.5508
422.8426
503.2873
576.494
613.9869
633.9315
0.300176 0.51992 0.186817
344.3339
382.3461
521.1095
586.4805
635.6492
637.2804
0.300176 0.51992 0.249089
327.2391
348.675
541.7918
578.7261
646.8022
648.7711
0.300176 0.51992 -0.311362
328.7145
328.7145
562.0834
562.0834
652.2088
652.2088
P	=	3800.43	V	=	87.77214	E	=	-655.14434747
0.0 0.0 0.0
-0.0
0.0
0.0
345.4048
345.4048
724.9307
0.0 0.0 0.062276
53.0485
53.0485
127.9241
340.8525
340.8525
718.3705
0.0 0.0 0.124551
104.5331
104.5331
250.7714
327.3252
327.3252
698.3552
0.0 0.0 0.186827
153.2814
153.2814
305.2886
305.2886
363.8962
663.9591
0.0 0.0 0.249102
198.5429
198.5429
275.6477
275.6477
463.5383
613.9375
0.0 0.0 -0.311378
239.6482
239.6482
239.6482
239.6482
547.2226
547.2226
0.0 0.115534 0.0
98.9788
103.2194
227.0517
363.389
398.6575
713.1931
0.0 0.115534 0.062276
116.7865
127.0387
251.2109
359.1998
394.0317
707.301
0.0 0.115534 0.124551
149.0362
172.7593
316.7793
346.7101
380.4436
689.3622
0.0 0.115534 0.186827
188.1407
215.5274
326.274
357.8953
401.0638
658.6487
0.0 0.115534 0.249102
227.9022
256.1678
298.7255
328.9796
483.2797
614.2228
0.0 0.115534 -0.311378
265.3936
265.3936
294.4443
294.4443
555.519
555.519
0.0 0.231068 0.0
191.5219
192.0567
403.6407
415.005
507.1148
679.5684
0.0 0.231068 0.062276
200.0632
203.7325
400.0768
426.6277
500.8689
676.7701
0.0 0.231068 0.124551
222.666
234.438
389.387
455.4495
485.0811
667.8455
0.0 0.231068 0.186827
253.1994
276.0186
371.7372
448.1537
506.1875
651.5285
0.0 0.231068 0.249102
286.3877
322.0302
347.762
411.4712
550.9396
626.5625
0.0 0.231068 -0.311378
318.7111
318.7111
368.249
368.249
592.5662
592.5662
0.0 0.346602 0.0
253.7556
274.6678
443.6419
541.7026
605.7819
629.6493
0.0 0.346602 0.062276
260.7992
277.3307
440.4125
547.0769
585.3808
645.4022
0.0 0.346602 0.124551
279.9846
288.1455
430.7364
533.0752
582.1287
661.2928
0.0 0.346602 0.186827
306.8744
311.384
414.7554
490.3353
607.1023
668.5126
0.0 0.346602 0.249102
336.8881
347.356
392.9699
441.6767
633.2295
666.0
0.0 0.346602 -0.311378
366.4367
366.4367
392.4448
392.4448
653.8366
653.8366
0.0 0.462136 0.0
287.4418
341.4808
470.4927
575.9105
609.7546
665.9541
0.0 0.462136 0.062276
293.8493
338.4213
467.283
559.0681
620.0716
674.3186
0.0 0.462136 0.124551
311.6201
334.3395
457.7369
523.4632
641.5548
689.5549
0.0 0.462136 0.186827
337.1527
338.9426
442.1086
480.17
665.628
701.111
0.0 0.462136 0.249102
358.2738
366.1991
420.8905
434.4974
686.2774
704.9629
0.0 0.462136 -0.311378
391.8123
391.8123
395.0203
395.0203
699.9295
699.9295
0.0 -0.57767 0.0
297.5012
372.5156
479.7405
547.7547
630.7297
684.8922
0.0 -0.57767 0.062276
303.7122
366.7867
476.4897
536.1816
639.4163
691.0197
0.0 -0.57767 0.124551
321.0725
355.9356
466.8583
506.9255
660.2408
703.7006
0.0 -0.57767 0.186827
346.2868
351.9061
451.167
468.3631
683.7646
714.6113
0.0 -0.57767 0.249102
362.8077
375.218
427.026
429.9252
703.2722
719.1436
0.0 -0.57767 -0.311378
389.5003
389.5003
404.0393
404.0393
715.448
715.448
0.100055 0.173301 0.0
168.1453
187.5878
342.3055
419.8728
468.2467
690.4688
0.100055 0.173301 0.062276
180.9821
195.9564
353.9395
420.0625
462.6421
686.357
0.100055 0.173301 0.124551
212.9442
218.0718
372.3026
431.9491
446.2764
673.7447
0.100055 0.173301 0.186827
247.7746
253.2467
367.8126
420.5063
473.9932
651.9009
0.100055 0.173301 0.249102
279.2677
292.976
351.1521
387.7567
527.4811
620.0181
0.100055 0.173301 -0.311378
304.9152
304.9152
354.2415
354.2415
577.972
577.972
0.100055 0.288835 0.0
247.75
267.393
418.6067
518.9082
559.7961
648.3209
0.100055 0.288835 0.062276
248.7076
275.3795
421.9822
521.1834
550.83
651.4185
0.100055 0.288835 0.124551
258.1509
294.5979
425.0106
510.8633
548.4355
655.6547
0.100055 0.288835 0.186827
281.1317
319.5349
418.8332
475.7732
571.9843
654.5389
0.100055 0.288835 0.249102
314.3045
343.5815
405.1904
436.0628
601.0772
645.1296
0.100055 0.288835 -0.311378
344.9179
344.9179
405.3935
405.3935
626.8387
626.8387
0.100055 0.404369 0.0
316.1784
320.4043
469.7459
585.6877
594.7591
636.8809
0.100055 0.404369 0.062276
308.2102
330.7745
469.131
565.0786
602.6012
649.6943
0.100055 0.404369 0.124551
302.2825
348.3804
462.9757
529.6953
619.3778
668.0759
0.100055 0.404369 0.186827
307.3642
370.2273
445.3805
494.2151
641.253
680.0465
0.100055 0.404369 0.249102
327.3953
383.1559
425.6374
464.5569
661.9517
683.0688
0.100055 0.404369 -0.311378
358.6223
358.6223
439.0477
439.0477
676.7344
676.7344
0.100055 0.519903 0.0
337.869
373.5877
495.5441
547.9055
618.1001
674.5431
0.100055 0.519903 0.062276
336.9276
373.3474
488.8757
539.7019
627.4133
680.2616
0.100055 0.519903 0.124551
330.6982
381.6747
467.5432
522.8947
648.6627
692.436
0.100055 0.519903 0.186827
326.3172
400.3257
435.3276
503.5836
672.2452
703.1846
0.100055 0.519903 0.249102
334.9097
392.2922
430.9061
481.4522
691.8098
707.7315
0.100055 0.519903 -0.311378
358.7521
358.7521
456.4797
456.4797
704.0419
704.0419
0.200111 0.346602 0.0
313.2069
358.2929
460.0601
589.8518
601.4052
604.3334
0.200111 0.346602 0.062276
306.7795
362.7855
467.7677
557.3343
606.4164
627.1491
0.200111 0.346602 0.124551
297.3176
374.4771
480.6512
515.6422
614.1671
649.5658
0.200111 0.346602 0.186827
299.0401
386.5096
475.9868
484.9823
628.7257
662.7018
0.200111 0.346602 0.249102
317.4153
379.8426
456.9771
478.1547
646.0194
665.9888
0.200111 0.346602 -0.311378
348.6901
348.6901
465.1068
465.1068
659.817
659.817
0.200111 0.462136 0.0
375.319
412.512
511.7098
548.1471
601.2292
649.1847
0.200111 0.462136 0.062276
361.9696
418.8758
509.562
537.0129
615.4868
652.3339
0.200111 0.462136 0.124551
338.6713
426.9462
484.8871
539.3365
635.7631
662.3105
0.200111 0.462136 0.186827
322.9813
411.9652
476.7198
539.5015
653.8613
674.3323
0.200111 0.462136 0.249102
323.9467
376.0051
492.8985
529.7127
669.5143
680.9999
0.200111 0.462136 -0.311378
343.2424
343.2424
512.8538
512.8538
679.3443
679.3443
0.200111 0.57767 0.0
409.7573
428.3218
515.952
539.4701
597.6443
663.6962
0.200111 0.57767 0.062276
389.9933
442.1424
489.1409
555.6464
607.5882
666.2601
0.200111 0.57767 0.124551
360.6791
448.2031
461.4264
565.6886
630.3668
673.6547
0.200111 0.57767 0.186827
337.4449
405.8685
483.5079
562.3661
654.8027
682.5899
0.200111 0.57767 0.249102
329.3887
367.8066
507.3075
549.3926
674.1029
687.6765
0.200111 0.57767 -0.311378
340.3117
340.3117
530.1749
530.1749
685.2778
685.2778
0.300166 0.519903 0.0
431.2942
488.8639
496.206
549.8421
583.09
650.1079
0.300166 0.519903 0.062276
414.4212
469.3706
500.132
563.4878
598.3708
648.4448
0.300166 0.519903 0.124551
381.0235
430.0498
512.2741
586.6428
624.8528
645.6599
0.300166 0.519903 0.186827
350.4326
388.9855
530.5137
597.0734
647.0866
649.0141
0.300166 0.519903 0.249102
333.1806
354.9054
551.7704
589.4259
658.6989
660.6064
0.300166 0.519903 -0.311378
334.7104
334.7104
572.5551
572.5551
664.1942
664.1942
P	=	3999.95	V	=	86.66628	E	=	-655.11503882
0.0 0.0 0.0
-0.0
0.0
0.0
351.3761
351.3761
738.157
0.0 0.0 0.062279
53.977
53.977
130.1705
346.7444
346.7444
731.4347
0.0 0.0 0.124558
106.3284
106.3284
255.2026
332.9722
332.9722
710.9602
0.0 0.0 0.186836
155.8625
155.8625
310.5202
310.5202
370.3671
675.8581
0.0 0.0 0.249115
201.8537
201.8537
280.3161
280.3161
471.8096
624.9019
0.0 0.0 -0.311394
243.659
243.659
243.659
243.659
556.9921
556.9921
0.0 0.115529 0.0
100.7054
104.9936
231.1475
369.6163
405.3951
726.136
0.0 0.115529 0.062279
118.799
129.0736
255.7893
365.3507
400.6745
720.1005
0.0 0.115529 0.124558
151.5897
175.4798
322.5359
352.6284
386.8125
701.7638
0.0 0.115529 0.186836
191.3177
218.9839
331.8054
363.8134
408.3151
670.4536
0.0 0.115529 0.249115
231.7072
260.3051
303.7423
334.3559
492.0049
625.2433
0.0 0.115529 -0.311394
269.8189
269.8189
299.2179
299.2179
565.5232
565.5232
0.0 0.231058 0.0
194.8489
195.3235
410.4502
422.4258
515.5424
691.695
0.0 0.231058 0.062279
203.5311
207.1057
406.8146
434.2455
509.159
688.8385
0.0 0.231058 0.124558
226.4942
238.225
395.914
463.3967
493.1843
679.7579
0.0 0.231058 0.186836
257.4927
280.4964
377.9298
455.2959
515.2958
663.1986
0.0 0.231058 0.249115
291.177
327.257
353.5278
418.0048
560.8894
637.8575
0.0 0.231058 -0.311394
323.9981
323.9981
374.1555
374.1555
603.2855
603.2855
0.0 0.346587 0.0
258.2058
279.18
451.0556
551.11
616.0469
640.5748
0.0 0.346587 0.062279
265.3535
281.8716
447.7554
556.4143
595.3943
656.6286
0.0 0.346587 0.124558
284.8176
292.8762
437.8781
541.6756
592.4583
672.8838
0.0 0.346587 0.186836
312.0886
316.5711
421.5939
498.1992
617.8608
680.3205
0.0 0.346587 0.249115
342.5234
353.1764
399.4378
448.8308
644.4748
677.8324
0.0 0.346587 -0.311394
372.4966
372.4966
398.9318
398.9318
665.4728
665.4728
0.0 0.462117 0.0
292.5083
346.9243
478.3417
585.5996
620.0411
677.5365
0.0 0.462117 0.062279
298.9998
343.8595
475.0584
568.3748
630.6197
686.0628
0.0 0.462117 0.124558
317.0053
339.8305
465.3072
532.0863
652.5598
701.6183
0.0 0.462117 0.186836
342.8781
344.6535
449.3788
488.0714
677.1501
713.4409
0.0 0.462117 0.249115
364.385
372.3177
427.8029
441.7267
698.2738
717.3969
0.0 0.462117 -0.311394
398.443
398.443
401.543
401.543
712.2515
712.2515
0.0 -0.577646 0.0
302.7521
378.3853
487.7483
556.8379
641.2623
696.9186
0.0 -0.577646 0.062279
309.0402
372.6309
484.4221
545.0662
650.1193
703.1632
0.0 -0.577646 0.124558
326.6203
361.7664
474.5814
515.3197
671.3835
716.0963
0.0 -0.577646 0.186836
352.1628
357.8456
458.5863
476.1485
695.4602
727.2298
0.0 -0.577646 0.249115
369.024
381.4824
434.204
436.9848
715.4786
731.8382
0.0 -0.577646 -0.311394
396.1414
396.1414
410.7077
410.7077
728.0072
728.0072
0.100051 0.173294 0.0
171.0316
190.7349
348.4064
427.1246
476.0089
702.8601
0.100051 0.173294 0.062279
183.9803
199.2449
360.1971
427.3663
470.2756
698.6557
0.100051 0.173294 0.124558
216.379
221.7257
378.643
439.673
453.5496
685.7951
0.100051 0.173294 0.186836
251.9059
257.3612
373.9275
427.2615
482.5697
663.5864
0.100051 0.173294 0.249115
283.8999
297.7601
356.918
393.9373
537.0442
631.1994
0.100051 0.173294 -0.311394
309.9558
309.9558
359.9184
359.9184
588.4463
588.4463
0.100051 0.288823 0.0
251.8847
271.9089
425.6502
528.0189
569.1669
659.6915
0.100051 0.288823 0.062279
252.8322
280.0067
429.0368
530.2077
560.1422
662.8672
0.100051 0.288823 0.124558
262.4166
299.5078
432.0333
519.1006
558.2433
667.2387
0.100051 0.288823 0.186836
285.8127
324.8271
425.7072
483.3441
582.2338
666.1803
0.100051 0.288823 0.249115
319.5246
349.238
411.8239
443.0712
611.8368
656.6651
0.100051 0.288823 -0.311394
350.5727
350.5727
412.0244
412.0244
638.0667
638.0667
0.100051 0.404352 0.0
321.5896
325.5884
477.4921
595.6502
604.8708
647.905
0.100051 0.404352 0.062279
313.325
336.3042
476.8429
574.4089
613.1517
660.9293
0.100051 0.404352 0.124558
307.3102
354.2204
470.5322
538.3612
630.2694
679.7
0.100051 0.404352 0.186836
312.54
376.389
452.6026
502.338
652.5213
691.961
0.100051 0.404352 0.249115
332.9179
389.4399
432.6364
472.2365
673.5915
695.0869
0.100051 0.404352 -0.311394
364.5703
364.5703
446.3158
446.3158
688.6499
688.6499
0.100051 0.519881 0.0
343.6944
379.5144
503.7067
556.9891
628.4281
686.374
0.100051 0.519881 0.062279
342.6474
379.4112
496.8765
548.6819
637.9482
692.1929
0.100051 0.519881 0.124558
336.2221
388.0729
475.1131
531.6549
659.6582
704.5927
0.100051 0.519881 0.186836
331.8276
407.0286
442.4014
512.0089
683.762
715.541
0.100051 0.519881 0.249115
340.6019
398.7486
438.0713
489.4514
703.7843
720.1483
0.100051 0.519881 -0.311394
364.7773
364.7773
464.0372
464.0372
716.3305
716.3305
0.200102 0.346587 0.0
318.3202
364.2352
467.6606
599.4517
611.668
615.2214
0.200102 0.346587 0.062279
311.8011
368.7886
475.4613
566.4244
617.3494
637.8385
0.200102 0.346587 0.124558
302.2344
380.6285
488.5106
523.9702
625.2163
660.7919
0.200102 0.346587 0.186836
304.0588
392.7788
483.7027
492.916
639.9405
674.2728
0.200102 0.346587 0.249115
322.7493
385.9689
464.4816
485.995
657.4438
677.6817
0.200102 0.346587 -0.311394
354.4375
354.4375
472.7448
472.7448
671.4347
671.4347
0.200102 0.462117 0.0
381.3377
419.4101
520.0377
557.2312
611.1344
660.6856
0.200102 0.462117 0.062279
367.8263
425.8589
517.8186
545.8813
625.8377
663.8423
0.200102 0.462117 0.124558
344.2551
433.961
492.8155
548.2581
646.7274
673.8686
0.200102 0.462117 0.186836
328.4132
418.5983
484.6458
548.4402
665.2085
686.0353
0.200102 0.462117 0.249115
329.4234
382.1448
501.0133
538.4426
681.104
692.794
0.200102 0.462117 -0.311394
348.9669
348.9669
521.2603
521.2603
691.093
691.093
0.200102 0.577646 0.0
416.288
435.5335
524.3838
548.1839
607.5489
675.3722
0.200102 0.577646 0.062279
396.2948
449.5649
497.0217
564.819
617.7043
677.9649
0.200102 0.577646 0.124558
366.6107
455.4153
469.1999
575.183
640.9652
685.4381
0.200102 0.577646 0.186836
343.111
412.4611
491.5791
571.8069
665.9065
694.4577
0.200102 0.577646 0.249115
334.9606
373.871
515.6547
558.496
685.6014
699.5501
0.200102 0.577646 -0.311394
346.0143
346.0143
538.865
538.865
697.0315
697.0315
0.300154 0.519881 0.0
438.201
497.0588
504.2531
558.7698
592.5179
661.609
0.300154 0.519881 0.062279
421.0924
476.9602
508.545
572.7119
608.1723
659.9132
0.300154 0.519881 0.124558
387.2635
437.004
520.938
596.3966
635.2861
656.9988
0.300154 0.519881 0.186836
356.2846
395.3542
539.3769
607.104
658.0176
660.1963
0.300154 0.519881 0.249115
338.7857
360.7886
560.8281
599.213
669.9131
671.8065
0.300154 0.519881 -0.311394
340.3123
340.3123
581.9225
581.9225
675.4637
675.4637

weight
   0.0000000   0.0000000   0.0000000   0.0020000   
   0.0000000   0.0000000   0.1000000   0.0040000   
   0.0000000   0.0000000   0.2000000   0.0040000   
   0.0000000   0.0000000   0.3000000   0.0040000   
   0.0000000   0.0000000   0.4000000   0.0040000   
   0.0000000   0.0000000  -0.5000000   0.0020000   
   0.0000000   0.1000000   0.0000000   0.0120000   
   0.0000000   0.1000000   0.1000000   0.0240000   
   0.0000000   0.1000000   0.2000000   0.0240000   
   0.0000000   0.1000000   0.3000000   0.0240000   
   0.0000000   0.1000000   0.4000000   0.0240000   
   0.0000000   0.1000000  -0.5000000   0.0120000   
   0.0000000   0.2000000   0.0000000   0.0120000   
   0.0000000   0.2000000   0.1000000   0.0240000   
   0.0000000   0.2000000   0.2000000   0.0240000   
   0.0000000   0.2000000   0.3000000   0.0240000   
   0.0000000   0.2000000   0.4000000   0.0240000   
   0.0000000   0.2000000  -0.5000000   0.0120000   
   0.0000000   0.3000000   0.0000000   0.0120000   
   0.0000000   0.3000000   0.1000000   0.0240000   
   0.0000000   0.3000000   0.2000000   0.0240000   
   0.0000000   0.3000000   0.3000000   0.0240000   
   0.0000000   0.3000000   0.4000000   0.0240000   
   0.0000000   0.3000000  -0.5000000   0.0120000   
   0.0000000   0.4000000   0.0000000   0.0120000   
   0.0000000   0.4000000   0.1000000   0.0240000   
   0.0000000   0.4000000   0.2000000   0.0240000   
   0.0000000   0.4000000   0.3000000   0.0240000   
   0.0000000   0.4000000   0.4000000   0.0240000   
   0.0000000   0.4000000  -0.5000000   0.0120000   
   0.0000000  -0.5000000   0.0000000   0.0060000   
   0.0000000  -0.5000000   0.1000000   0.0120000   
   0.0000000  -0.5000000   0.2000000   0.0120000   
   0.0000000  -0.5000000   0.3000000   0.0120000   
   0.0000000  -0.5000000   0.4000000   0.0120000   
   0.0000000  -0.5000000  -0.5000000   0.0060000   
   0.1000000   0.1000000   0.0000000   0.0120000   
   0.1000000   0.1000000   0.1000000   0.0240000   
   0.1000000   0.1000000   0.2000000   0.0240000   
   0.1000000   0.1000000   0.3000000   0.0240000   
   0.1000000   0.1000000   0.4000000   0.0240000   
   0.1000000   0.1000000  -0.5000000   0.0120000   
   0.1000000   0.2000000   0.0000000   0.0240000   
   0.1000000   0.2000000   0.1000000   0.0480000   
   0.1000000   0.2000000   0.2000000   0.0480000   
   0.1000000   0.2000000   0.3000000   0.0480000   
   0.1000000   0.2000000   0.4000000   0.0480000   
   0.1000000   0.2000000  -0.5000000   0.0240000   
   0.1000000   0.3000000   0.0000000   0.0240000   
   0.1000000   0.3000000   0.1000000   0.0480000   
   0.1000000   0.3000000   0.2000000   0.0480000   
   0.1000000   0.3000000   0.3000000   0.0480000   
   0.1000000   0.3000000   0.4000000   0.0480000   
   0.1000000   0.3000000  -0.5000000   0.0240000   
   0.1000000   0.4000000   0.0000000   0.0240000   
   0.1000000   0.4000000   0.1000000   0.0480000   
   0.1000000   0.4000000   0.2000000   0.0480000   
   0.1000000   0.4000000   0.3000000   0.0480000   
   0.1000000   0.4000000   0.4000000   0.0480000   
   0.1000000   0.4000000  -0.5000000   0.0240000   
   0.2000000   0.2000000   0.0000000   0.0120000   
   0.2000000   0.2000000   0.1000000   0.0240000   
   0.2000000   0.2000000   0.2000000   0.0240000   
   0.2000000   0.2000000   0.3000000   0.0240000   
   0.2000000   0.2000000   0.4000000   0.0240000   
   0.2000000   0.2000000  -0.5000000   0.0120000   
   0.2000000   0.3000000   0.0000000   0.0240000   
   0.2000000   0.3000000   0.1000000   0.0480000   
   0.2000000   0.3000000   0.2000000   0.0480000   
   0.2000000   0.3000000   0.3000000   0.0480000   
   0.2000000   0.3000000   0.4000000   0.0480000   
   0.2000000   0.3000000  -0.5000000   0.0240000   
   0.2000000   0.4000000   0.0000000   0.0120000   
   0.2000000   0.4000000   0.1000000   0.0240000   
   0.2000000   0.4000000   0.2000000   0.0240000   
   0.2000000   0.4000000   0.3000000   0.0240000   
   0.2000000   0.4000000   0.4000000   0.0240000   
   0.2000000   0.4000000  -0.5000000   0.0120000   
   0.3000000   0.3000000   0.0000000   0.0120000   
   0.3000000   0.3000000   0.1000000   0.0240000   
   0.3000000   0.3000000   0.2000000   0.0240000   
   0.3000000   0.3000000   0.3000000   0.0240000   
   0.3000000   0.3000000   0.4000000   0.0240000   
   0.3000000   0.3000000  -0.5000000   0.0120000   