Number of volumes (nv), q-vectors (nq), normal mode (np), formula units(nm)
12 84 6 1

P	=	-0.06	V	=	151.48407	E	=	-655.60500823
0.0 0.0 0.0
-0.0
0.0
0.0
150.5421
150.5421
278.7003
0.0 0.0 0.062081
22.274
22.274
51.8534
148.5287
148.5287
276.8946
0.0 0.0 0.124161
44.2879
44.2879
101.0166
142.5825
142.5825
270.8896
0.0 0.0 0.186242
65.6469
65.6469
132.9541
132.9541
145.4581
259.38
0.0 0.0 0.248323
85.7958
85.7958
119.9909
119.9909
184.0084
241.2447
0.0 0.0 -0.310403
104.1064
104.1064
104.1064
104.1064
216.0675
216.0675
0.0 0.115777 0.0
41.8741
47.0851
90.128
158.7016
171.2506
275.1442
0.0 0.115777 0.062081
52.56
55.9603
98.5897
156.9557
169.4254
273.3841
0.0 0.115777 0.124161
65.802
77.0423
123.8967
151.6484
164.0269
267.6855
0.0 0.115777 0.186242
82.189
95.3165
142.734
155.2282
157.457
257.0934
0.0 0.115777 0.248323
99.2305
112.6766
130.4979
143.4249
190.0883
240.7383
0.0 0.115777 -0.310403
115.6696
115.6696
128.9965
128.9965
218.2867
218.2867
0.0 0.231555 0.0
82.422
85.6767
164.1905
175.6429
211.1271
265.0594
0.0 0.231555 0.062081
88.0056
89.4416
168.5698
174.3538
208.9815
263.896
0.0 0.231555 0.124161
99.0735
102.4195
170.1738
180.5156
202.6404
260.3002
0.0 0.231555 0.186242
111.6053
121.3968
162.6182
191.8998
197.4944
253.9437
0.0 0.231555 0.248323
125.1792
141.6433
151.85
178.1326
215.0404
244.3557
0.0 0.231555 -0.310403
138.9206
138.9206
161.019
161.019
231.2492
231.2492
0.0 0.347332 0.0
110.5119
119.4008
189.914
213.3874
242.631
250.2096
0.0 0.347332 0.062081
113.9052
120.2341
188.8903
216.6457
234.9954
254.8398
0.0 0.347332 0.124161
122.6709
124.3843
185.4807
220.3713
226.4425
259.1336
0.0 0.347332 0.186242
134.118
134.1827
179.1277
204.9938
236.3678
260.6866
0.0 0.347332 0.248323
146.385
149.4213
169.8726
186.9038
246.5103
259.1881
0.0 0.347332 -0.310403
158.5822
158.5822
167.8097
167.8097
254.4151
254.4151
0.0 0.463109 0.0
122.0374
148.9779
197.292
234.0297
238.7504
257.8857
0.0 0.463109 0.062081
125.3041
146.9152
196.3267
227.805
242.0576
261.1851
0.0 0.463109 0.124161
133.9278
143.5063
193.241
214.5685
249.5004
266.4323
0.0 0.463109 0.186242
143.8635
145.4407
187.6932
198.2743
257.8971
270.0949
0.0 0.463109 0.248323
150.9213
157.7065
179.6153
180.7766
264.9728
271.2505
0.0 0.463109 -0.310403
164.097
164.097
169.391
169.391
269.56
269.56
0.0 -0.578887 0.0
124.9251
162.1851
199.2641
225.2996
246.2551
261.5218
0.0 -0.578887 0.062081
128.151
158.8684
198.2921
220.3988
249.4124
264.0388
0.0 -0.578887 0.124161
136.7766
152.2343
195.2779
208.521
256.6355
268.838
0.0 -0.578887 0.186242
148.3798
148.4569
190.0169
193.1633
264.3374
272.8003
0.0 -0.578887 0.248323
151.4082
160.9072
176.6742
182.3919
270.3835
274.6485
0.0 -0.578887 -0.310403
161.6821
161.6821
172.5315
172.5315
273.8922
273.8922
0.100266 0.173666 0.0
71.8876
84.1377
139.648
177.0036
197.6967
268.3217
0.100266 0.173666 0.062081
78.5035
87.7354
144.928
175.942
195.7697
266.8483
0.100266 0.173666 0.124161
94.1694
97.0318
158.0198
173.8388
190.058
262.2634
0.100266 0.173666 0.186242
109.2517
112.7731
160.9449
180.7779
184.6153
254.1387
0.100266 0.173666 0.248323
122.3441
130.2499
153.0746
168.4061
205.6933
241.99
0.100266 0.173666 -0.310403
133.9283
133.9283
154.7386
154.7386
225.632
225.632
0.100266 0.289443 0.0
107.4029
117.7885
179.4576
205.6276
228.5035
255.8113
0.100266 0.289443 0.062081
108.2477
121.2474
181.7752
206.5143
224.8451
256.3529
0.100266 0.289443 0.124161
113.2076
129.5778
184.3929
210.3511
216.0917
256.7534
0.100266 0.289443 0.186242
124.0721
140.0465
181.5198
201.0416
222.0533
255.3647
0.100266 0.289443 0.248323
138.8482
150.3834
174.5129
186.0668
233.7183
251.2435
0.100266 0.289443 -0.310403
151.9075
151.9075
173.512
173.512
243.9445
243.9445
0.100266 0.405221 0.0
135.9945
139.9528
199.8534
229.6781
239.898
250.1068
0.100266 0.405221 0.062081
134.4462
142.5853
199.7926
229.3261
234.8695
255.33
0.100266 0.405221 0.124161
132.2321
149.8696
197.3622
217.9267
240.0249
261.1333
0.100266 0.405221 0.186242
134.2157
159.3671
189.4471
205.36
248.5202
264.3611
0.100266 0.405221 0.248323
142.5272
166.0171
179.3201
194.6496
256.3845
264.6805
0.100266 0.405221 -0.310403
155.6318
155.6318
184.6325
184.6325
261.9842
261.9842
0.100266 0.520998 0.0
142.739
162.872
206.8296
225.5829
242.5069
258.9763
0.100266 0.520998 0.062081
144.0738
160.8457
204.8209
221.6647
245.8147
261.5134
0.100266 0.520998 0.124161
144.0049
161.2355
197.2584
214.3607
253.189
266.2869
0.100266 0.520998 0.186242
141.6386
168.75
184.1078
207.1944
260.9917
270.0927
0.100266 0.520998 0.248323
144.1353
167.4091
180.0062
199.2133
267.1128
271.7028
0.100266 0.520998 -0.310403
153.4833
153.4833
189.9371
189.9371
270.7399
270.7399
0.200532 0.347332 0.0
136.948
155.0409
196.374
232.666
238.8075
242.0256
0.200532 0.347332 0.062081
134.3161
157.3222
199.9048
227.852
233.2606
249.9305
0.200532 0.347332 0.124161
130.6402
163.0545
205.5464
213.0429
236.0102
256.0529
0.200532 0.347332 0.186242
131.7834
169.0341
197.8816
206.4735
242.1627
259.0099
0.200532 0.347332 0.248323
139.7491
166.5204
190.918
202.2592
249.6066
258.8193
0.200532 0.347332 -0.310403
152.9499
152.9499
195.7045
195.7045
255.5651
255.5651
0.200532 0.463109 0.0
163.9784
174.3248
215.2038
226.0397
238.9818
250.59
0.200532 0.463109 0.062081
158.4447
177.4107
214.093
222.0229
242.5506
253.2971
0.200532 0.463109 0.124161
148.7888
182.5219
202.0502
223.8551
247.628
258.7523
0.200532 0.463109 0.186242
141.8053
178.2128
197.094
222.8607
253.9376
262.8803
0.200532 0.463109 0.248323
141.4393
162.7248
203.6968
218.1639
259.6406
264.4089
0.200532 0.463109 -0.310403
148.9935
148.9935
211.3534
211.3534
263.274
263.274
0.200532 0.578887 0.0
178.0482
179.0085
215.9082
224.3308
238.2617
255.4491
0.200532 0.578887 0.062081
169.8016
184.6394
206.7232
228.6611
242.0942
257.141
0.200532 0.578887 0.124161
158.1592
191.4392
191.5731
230.39
250.1474
261.1101
0.200532 0.578887 0.186242
147.8232
174.5128
199.7206
228.0309
257.8513
264.8275
0.200532 0.578887 0.248323
143.2261
158.536
208.0958
222.8883
263.292
266.6563
0.200532 0.578887 -0.310403
147.0172
147.0172
215.9963
215.9963
266.1775
266.1775
0.300798 0.520998 0.0
186.6101
200.4501
209.6807
227.6923
238.2091
250.7603
0.300798 0.520998 0.062081
180.0064
199.2647
205.2838
232.4935
243.4468
250.5872
0.300798 0.520998 0.124161
166.6379
185.4403
209.0857
239.4447
251.1327
251.724
0.300798 0.520998 0.186242
153.5066
168.6874
215.8019
239.8589
255.1075
257.8393
0.300798 0.520998 0.248323
145.1446
153.8645
222.8691
235.604
259.2883
260.9427
0.300798 0.520998 -0.310403
145.0582
145.0582
229.6131
229.6131
261.3231
261.3231
P	=	500.07	V	=	127.09869	E	=	-655.57010571
0.0 0.0 0.0
-0.0
-0.0
0.0
202.8518
202.8518
396.5406
0.0 0.0 0.062159
31.1677
31.1677
73.0162
200.2471
200.2471
393.5583
0.0 0.0 0.124318
61.1157
61.1157
142.408
192.3601
192.3601
384.0825
0.0 0.0 0.186477
89.2094
89.2094
179.2025
179.2025
205.2915
366.8872
0.0 0.0 0.248636
115.4009
115.4009
161.2768
161.2768
259.8436
340.7871
0.0 0.0 -0.310796
139.6287
139.6287
139.6371
139.6371
305.077
305.1881
0.0 0.115609 0.0
58.0435
61.8695
127.0231
213.5461
232.8839
390.9349
0.0 0.115609 0.062159
69.7239
76.5666
139.7636
211.2085
230.3989
388.1762
0.0 0.115609 0.124318
88.3165
104.6282
176.1727
204.0891
222.8755
379.4971
0.0 0.115609 0.186477
110.6846
128.7632
192.0702
210.3651
223.5716
363.8813
0.0 0.115609 0.248636
133.548
151.5089
175.566
193.8086
269.3969
340.3534
0.0 0.115609 -0.310796
155.5439
155.6672
173.4375
174.0074
308.5335
308.9586
0.0 0.231219 0.0
113.2942
113.6042
231.9123
236.6251
291.9563
375.1293
0.0 0.231219 0.062159
118.7137
120.7185
234.769
238.367
288.7124
373.6176
0.0 0.231219 0.124318
132.0931
139.6834
228.9747
255.5529
279.2597
368.8579
0.0 0.231219 0.186477
149.8354
164.0307
218.9371
262.4832
281.0406
359.9318
0.0 0.231219 0.248636
168.9907
190.2072
204.8818
242.9471
306.1635
346.033
0.0 0.231219 -0.310796
187.7807
187.8126
216.5945
219.192
327.2249
329.0446
0.0 0.346828 0.0
148.4302
163.0398
257.8855
302.6374
341.4562
351.9949
0.0 0.346828 0.062159
152.8223
164.0437
256.293
307.0356
329.6105
359.9308
0.0 0.346828 0.124318
164.6083
169.3202
251.2984
306.1116
322.607
367.2578
0.0 0.346828 0.186477
180.721
182.0689
242.6367
283.3337
336.84
370.1967
0.0 0.346828 0.248636
198.3125
202.5454
230.3894
256.9651
351.3498
368.3699
0.0 0.346828 -0.310796
215.1893
215.3858
228.1723
229.6565
361.6373
362.6477
0.0 0.462437 0.0
165.9845
203.2267
270.7299
326.8734
340.2456
368.3296
0.0 0.462437 0.062159
170.0803
200.1793
269.161
317.9932
345.3244
372.8288
0.0 0.462437 0.124318
181.2723
195.2377
264.3766
298.8238
356.4535
380.4714
0.0 0.462437 0.186477
196.1016
196.9577
256.3075
274.8988
368.8213
386.2808
0.0 0.462437 0.248636
206.8551
214.2432
244.9636
249.1385
379.0625
388.5728
0.0 0.462437 -0.310796
224.5623
226.3407
230.6189
230.7873
385.5535
386.5076
0.0 -0.578047 0.0
170.8579
221.594
274.7906
313.3503
351.6489
375.8974
0.0 -0.578047 0.062159
174.8397
217.0045
273.1843
306.443
356.2409
379.3194
0.0 -0.578047 0.124318
185.8395
207.9291
268.4015
289.4228
366.9135
386.1482
0.0 -0.578047 0.186477
201.4514
203.073
260.4814
267.4362
378.5753
391.9842
0.0 -0.578047 0.248636
207.9828
218.7664
244.0954
249.4053
387.905
394.7784
0.0 -0.578047 -0.310796
221.1138
224.6021
235.2783
235.2819
392.5488
394.4187
0.100121 0.173414 0.0
98.9974
111.7056
194.8665
241.4057
271.6066
380.2272
0.100121 0.173414 0.062159
107.4365
116.7096
202.2268
240.4837
268.7617
378.1509
0.100121 0.173414 0.124318
127.4773
129.7998
217.3028
241.9473
260.3006
371.6597
0.100121 0.173414 0.186477
146.8656
151.7813
216.9105
246.5694
262.6849
360.1266
0.100121 0.173414 0.248636
165.0163
174.9329
206.8848
228.5334
292.2481
342.9543
0.100121 0.173414 -0.310796
179.9824
180.9633
209.0275
209.5857
319.8973
320.1546
0.100121 0.289023 0.0
146.7127
157.8784
244.5554
289.6652
318.8432
360.6839
0.100121 0.289023 0.062159
147.231
162.8022
247.022
291.612
313.3097
361.9926
0.100121 0.289023 0.124318
152.8667
174.4512
249.4841
294.0852
304.3415
363.555
0.100121 0.289023 0.186477
166.7598
188.9884
245.8637
276.5595
316.625
362.2516
0.100121 0.289023 0.248636
186.8031
202.9651
237.049
255.0636
333.1078
356.6688
0.100121 0.289023 -0.310796
203.8317
205.9937
235.816
237.674
346.4772
347.4403
0.100121 0.404633 0.0
184.4059
190.4845
272.9686
326.8748
335.8918
354.7805
0.100121 0.404633 0.062159
181.7648
194.035
272.7465
321.2824
334.1634
361.9705
0.100121 0.404633 0.124318
178.0078
203.754
269.4496
302.9538
342.8859
370.9136
0.100121 0.404633 0.186477
180.5401
216.7689
259.1703
283.7718
355.019
376.4271
0.100121 0.404633 0.248636
192.4937
225.4196
245.9426
268.0931
366.177
377.6835
0.100121 0.404633 -0.310796
210.2879
211.2752
253.5499
254.1606
374.0657
374.237
0.100121 0.520242 0.0
195.2245
222.0488
285.2013
313.6443
345.4576
371.2773
0.100121 0.520242 0.062159
196.165
219.5597
282.0726
308.309
350.3179
374.59
0.100121 0.520242 0.124318
194.2678
220.9134
271.0744
297.8355
361.2578
381.2195
0.100121 0.520242 0.186477
190.9532
231.4158
252.508
287.1313
373.0263
386.9973
0.100121 0.520242 0.248636
195.4121
228.2628
247.9117
275.5741
382.3233
389.8457
0.100121 0.520242 -0.310796
207.7178
209.7521
261.9724
262.593
387.4713
388.9798
0.200241 0.346828 0.0
186.0324
210.1379
268.6858
332.0685
335.3225
339.1201
0.200241 0.346828 0.062159
182.0291
213.062
273.225
318.0369
333.2175
352.1929
0.200241 0.346828 0.124318
176.0499
220.677
280.5205
295.8159
337.7438
362.4336
0.200241 0.346828 0.186477
176.7842
228.9224
273.5479
282.3291
346.5121
367.9977
0.200241 0.346828 0.248636
187.5738
225.4506
263.1557
277.6324
356.7495
368.7736
0.200241 0.346828 -0.310796
205.4394
207.1072
268.8466
269.7806
364.7105
364.9201
0.200241 0.462437 0.0
222.783
239.0864
296.7492
314.1191
338.6504
357.8143
0.200241 0.462437 0.062159
214.5672
243.1634
295.3747
308.0708
344.7944
360.6142
0.200241 0.462437 0.124318
200.1905
249.4089
279.3766
309.7422
353.3739
367.6214
0.200241 0.462437 0.186477
190.1654
242.4395
272.9313
308.9976
362.5652
374.2209
0.200241 0.462437 0.248636
190.2938
220.534
282.4535
303.147
370.8013
377.5291
0.200241 0.462437 -0.310796
200.8038
201.5619
293.6464
293.7749
375.9538
376.5481
0.200241 0.578047 0.0
242.5866
246.7777
298.3794
311.0904
336.9243
365.8117
0.200241 0.578047 0.062159
230.6397
254.6804
284.5221
318.0917
342.3192
367.7253
0.200241 0.578047 0.124318
213.3307
261.8795
264.7608
321.5179
354.136
372.6674
0.200241 0.578047 0.186477
198.6271
237.4489
276.7828
318.7446
366.1885
377.9808
0.200241 0.578047 0.248636
192.7214
214.9166
289.6205
311.7023
375.2655
381.018
0.200241 0.578047 -0.310796
197.8436
199.3995
301.545
301.8051
379.6746
380.8753
0.300362 0.520242 0.0
254.4469
278.8217
288.7009
316.8539
333.4316
358.582
0.300362 0.520242 0.062159
244.7552
273.8576
285.1563
323.7819
341.1081
357.9892
0.300362 0.520242 0.124318
225.1279
252.5844
291.1619
334.6306
353.8692
357.7077
0.300362 0.520242 0.186477
206.3554
228.472
301.2076
337.3183
361.9713
364.1372
0.300362 0.520242 0.248636
195.0766
207.7505
312.4637
332.0154
368.2003
370.1043
0.300362 0.520242 -0.310796
195.2718
195.6266
323.1156
323.2146
371.3417
371.4308
P	=	999.86	V	=	115.03086	E	=	-655.51024038
0.0 0.0 0.0
-0.0
0.0
0.0
238.1987
238.1987
472.0602
0.0 0.0 0.062221
36.5037
36.5037
85.8093
235.1027
235.1027
468.3677
0.0 0.0 0.124443
71.695
71.695
167.7524
225.7841
225.7841
456.7722
0.0 0.0 0.186664
104.8232
104.8232
210.3559
210.3559
242.539
436.0135
0.0 0.0 0.248886
135.702
135.702
189.4307
189.4307
307.7858
404.7366
0.0 0.0 -0.311107
164.1439
164.1439
164.1465
164.1465
361.9985
362.105
0.0 0.115564 0.0
67.82
72.3195
151.0494
250.5358
273.7129
465.1597
0.0 0.115564 0.062221
81.4997
88.6793
166.4697
247.7459
270.668
461.7743
0.0 0.115564 0.124443
103.3933
121.1966
209.5941
239.2889
261.6469
451.2184
0.0 0.115564 0.186664
129.8687
150.0008
225.167
246.7672
265.537
432.4775
0.0 0.115564 0.248886
156.8972
177.1601
205.9127
227.2472
319.8859
404.4681
0.0 0.115564 -0.311107
182.6498
182.7485
203.1355
203.8555
366.6545
366.9756
0.0 0.231129 0.0
132.2611
133.1386
275.8263
277.428
344.2357
445.5942
0.0 0.231129 0.062221
139.1259
140.6731
275.1393
283.6167
340.1627
443.8704
0.0 0.231129 0.124443
154.7525
162.4448
268.1962
303.9742
328.7793
438.3575
0.0 0.231129 0.186664
175.5867
191.0475
256.4406
307.8491
334.7747
428.061
0.0 0.231129 0.248886
198.1153
222.1474
240.166
284.2577
364.3919
412.0226
0.0 0.231129 -0.311107
220.1153
220.3519
253.4143
255.8081
390.0937
391.3976
0.0 0.346693 0.0
174.4784
190.1448
302.7814
359.9626
404.6484
416.8108
0.0 0.346693 0.062221
179.5988
191.4256
300.7781
364.8492
390.119
427.0231
0.0 0.346693 0.124443
193.208
197.7284
294.7498
360.5056
384.3583
436.4587
0.0 0.346693 0.186664
211.8846
212.8675
284.5589
332.9481
401.2515
440.5607
0.0 0.346693 0.248886
232.3818
237.1399
270.3208
301.3728
418.4068
438.8419
0.0 0.346693 -0.311107
252.331
252.64
267.4754
268.8932
431.1019
431.7038
0.0 0.462258 0.0
195.5766
236.9065
318.6741
385.6408
404.7495
438.6392
0.0 0.462258 0.062221
200.3067
233.6738
316.7207
375.0317
410.8818
443.9964
0.0 0.462258 0.124443
213.1562
228.4147
310.8968
352.1014
424.3312
453.3264
0.0 0.462258 0.186664
229.8278
231.2115
301.2143
323.6948
439.3478
460.4569
0.0 0.462258 0.248886
242.6534
251.2478
287.7462
293.2978
451.8822
463.2028
0.0 0.462258 -0.311107
264.4452
265.5844
270.6203
270.8362
459.834
460.6349
0.0 -0.577822 0.0
201.5024
258.3315
323.8694
369.0101
418.3293
448.6121
0.0 -0.577822 0.062221
206.0751
253.1904
321.8985
360.9704
423.8578
452.6238
0.0 -0.577822 0.124443
218.7189
243.1386
316.0361
341.008
436.7979
460.744
0.0 -0.577822 0.186664
236.7181
238.1398
306.3744
315.1052
451.0198
467.7577
0.0 -0.577822 0.248886
244.5239
256.8138
287.5191
293.0018
462.4948
471.0431
0.0 -0.577822 -0.311107
261.1455
263.5862
276.1794
276.2012
468.6799
470.0765
0.100082 0.173347 0.0
115.6002
130.6252
230.9607
284.323
319.7094
451.9139
0.100082 0.173347 0.062221
125.0497
136.4498
239.5203
283.4938
316.1951
449.4315
0.100082 0.173347 0.124443
148.0568
151.736
255.6756
287.105
305.8225
441.7273
0.100082 0.173347 0.186664
171.9639
176.4856
254.0461
289.1878
313.0393
428.1429
0.100082 0.173347 0.248886
193.4395
204.0082
242.3473
267.587
348.1082
407.9601
0.100082 0.173347 -0.311107
211.0449
211.7864
244.5206
245.118
380.8698
381.0204
0.100082 0.288911 0.0
171.1503
185.0559
287.2444
344.3321
376.8194
427.59
0.100082 0.288911 0.062221
171.7081
190.7489
289.9092
346.689
370.0706
429.4725
0.100082 0.288911 0.124443
178.1962
204.2139
292.4685
346.6199
362.1807
431.9169
0.100082 0.288911 0.186664
194.3966
221.2682
288.2278
324.6422
377.463
430.9499
0.100082 0.288911 0.248886
217.8951
237.7104
278.142
298.9081
396.851
424.8084
0.100082 0.288911 -0.311107
238.5992
240.2825
276.8738
278.5406
413.0108
413.6844
0.100082 0.404475 0.0
216.7821
222.0542
320.6342
388.8725
396.6948
421.64
0.100082 0.404475 0.062221
212.6388
227.4065
320.3198
379.2672
397.8326
430.0397
0.100082 0.404475 0.124443
207.9819
239.124
316.3603
356.9451
408.6278
441.1167
0.100082 0.404475 0.186664
210.9271
254.2976
304.2251
334.1743
423.0648
448.1333
0.100082 0.404475 0.248886
224.8809
263.9219
289.2482
315.554
436.3521
449.8873
0.100082 0.404475 -0.311107
246.1916
246.8779
298.3129
299.0396
445.6832
445.9156
0.100082 0.52004 0.0
229.9195
258.8545
335.833
369.1966
410.651
442.7936
0.100082 0.52004 0.062221
230.534
256.6845
331.8586
363.2535
416.4979
446.6606
0.100082 0.52004 0.124443
227.3045
259.6731
318.3197
351.5047
429.7578
454.5516
0.100082 0.52004 0.186664
223.3247
272.2382
296.3974
338.9727
444.1285
461.4515
0.100082 0.52004 0.248886
228.6622
267.6914
291.9774
325.0502
455.6149
464.7006
0.100082 0.52004 -0.311107
243.9189
245.3557
308.7757
309.2781
462.1902
463.3077
0.200163 0.346693 0.0
216.8589
246.6453
315.494
396.364
396.5299
400.6066
0.200163 0.346693 0.062221
212.1492
249.9978
320.8288
375.0501
397.8051
417.2587
0.200163 0.346693 0.124443
205.145
258.7203
329.4588
348.2313
403.2558
430.3337
0.200163 0.346693 0.186664
206.0743
267.9704
321.8778
331.8066
413.4863
437.6414
0.200163 0.346693 0.248886
218.8217
263.3306
309.883
326.5263
425.3343
439.0205
0.200163 0.346693 -0.311107
240.1549
241.4517
316.4692
317.3943
434.5125
434.7435
0.200163 0.462258 0.0
259.6993
281.4487
348.9077
369.4973
401.6041
426.6464
0.200163 0.462258 0.062221
250.221
286.1331
347.0566
362.788
409.5596
429.5045
0.200163 0.462258 0.124443
233.535
292.9635
328.5876
365.2318
420.7112
437.3081
0.200163 0.462258 0.186664
221.9463
283.669
322.0957
364.7474
431.7938
445.1846
0.200163 0.462258 0.248886
222.1585
258.0388
333.2937
357.9028
441.5579
449.1835
0.200163 0.462258 -0.311107
234.903
235.4575
346.5438
346.7326
447.6319
448.0554
0.200163 0.577822 0.0
282.9315
290.8842
350.1626
366.2939
399.3404
436.3366
0.200163 0.577822 0.062221
269.2139
300.1222
333.5589
375.255
405.8562
438.4067
0.200163 0.577822 0.124443
248.9027
306.7293
312.4996
380.2454
420.2451
443.9159
0.200163 0.577822 0.186664
231.9265
278.0091
326.8817
377.2984
434.9843
450.0031
0.200163 0.577822 0.248886
225.2743
251.5479
342.1379
368.7791
446.1251
453.4076
0.200163 0.577822 -0.311107
231.7519
232.9619
356.4286
356.7571
451.9078
452.7326
0.300245 0.52004 0.0
296.9745
329.6833
338.1753
373.1029
393.3906
427.9146
0.300245 0.52004 0.062221
285.6192
321.0396
336.8961
381.6568
402.8139
427.1273
0.300245 0.52004 0.124443
262.7413
295.4511
344.7371
395.4654
418.7048
426.2845
0.300245 0.52004 0.186664
240.9804
267.2158
356.7149
399.8876
430.2003
431.5421
0.300245 0.52004 0.248886
227.955
242.9625
370.1107
393.7929
437.061
438.9774
0.300245 0.52004 -0.311107
228.3184
228.6789
382.9211
383.0928
440.622
440.7065
P	=	1500.21	V	=	107.01827	E	=	-655.44290256
0.0 0.0 0.0
-0.0
0.0
0.0
266.6547
266.6547
531.9924
0.0 0.0 0.06227
41.0862
41.0862
96.2255
263.2155
263.2155
527.7395
0.0 0.0 0.124539
80.6756
80.6756
188.3094
252.8643
252.8643
514.4788
0.0 0.0 0.186809
117.8932
117.8932
235.7222
235.7222
272.5929
490.9398
0.0 0.0 0.249079
152.4991
152.4991
212.451
212.451
346.2584
455.6479
0.0 0.0 -0.311349
184.2726
184.2726
184.2834
184.2834
407.4717
407.561
0.0 0.115539 0.0
75.8216
80.7757
170.0945
280.2952
306.3295
524.0399
0.0 0.115539 0.06227
91.14
98.4294
187.7096
277.1521
302.9105
520.1711
0.0 0.115539 0.124539
115.7468
134.3999
236.3832
267.6912
292.7319
508.1805
0.0 0.115539 0.186809
145.5293
166.9293
251.9826
275.8892
299.2033
487.0299
0.0 0.115539 0.249079
175.8982
197.6578
230.6075
253.8387
360.2899
455.5338
0.0 0.115539 -0.311349
204.7382
204.7842
226.9028
227.477
413.0128
413.2999
0.0 0.231077 0.0
147.7436
148.7232
310.2296
310.3889
385.5654
501.4062
0.0 0.231077 0.06227
155.3386
156.8515
307.6389
319.2189
380.9205
499.5193
0.0 0.231077 0.124539
172.7579
180.6409
299.7972
342.1058
368.0688
493.501
0.0 0.231077 0.186809
196.1765
212.3449
286.6314
343.5411
377.3751
482.1775
0.0 0.231077 0.249079
221.5675
247.1654
268.4881
316.5035
410.6466
464.3923
0.0 0.231077 -0.311349
246.2411
246.3749
282.2806
284.2615
439.8804
440.9732
0.0 0.346616 0.0
194.9037
212.1161
338.8392
404.5853
454.2485
468.0168
0.0 0.346616 0.06227
200.5799
213.5844
336.6304
409.8569
437.803
479.9355
0.0 0.346616 0.124539
215.8062
220.674
329.8518
403.1953
432.8365
491.0712
0.0 0.346616 0.186809
236.719
237.492
318.291
371.897
451.9121
496.0465
0.0 0.346616 0.249079
259.6817
264.4471
302.1203
336.1635
471.2587
494.2593
0.0 0.346616 -0.311349
282.0642
282.1632
298.3492
299.6383
485.6261
486.185
0.0 0.462155 0.0
218.4416
263.9347
357.1196
431.9843
454.4937
493.4931
0.0 0.462155 0.06227
223.8602
260.5287
355.0421
419.933
461.7113
499.6121
0.0 0.462155 0.124539
238.4567
255.1664
348.5917
394.0565
477.2747
510.4248
0.0 0.462155 0.186809
257.0395
258.5777
337.4702
362.1669
494.54
518.6561
0.0 0.462155 0.249079
271.2837
280.7368
321.8105
328.1535
508.9521
521.7053
0.0 0.462155 -0.311349
296.0246
296.7335
302.3649
302.4875
518.1162
518.6708
0.0 -0.577693 0.0
225.0392
287.6448
363.1904
412.9086
469.5836
505.1715
0.0 -0.577693 0.06227
230.4181
282.1325
361.1147
404.0129
476.0225
509.7763
0.0 -0.577693 0.124539
244.9044
271.4608
354.678
381.8456
491.081
519.133
0.0 -0.577693 0.186809
264.8816
266.4065
343.5546
352.9456
507.5727
527.179
0.0 -0.577693 0.249079
273.8137
286.9139
322.0431
327.8803
520.8374
530.8319
0.0 -0.577693 -0.311349
292.9808
294.7122
308.4036
308.642
528.2833
529.3263
0.100059 0.173308 0.0
129.1731
145.7492
259.4635
318.7353
357.8391
508.7234
0.100059 0.173308 0.06227
139.4107
152.1882
268.9954
317.9871
353.8033
505.9678
0.100059 0.173308 0.124539
164.6272
169.1976
286.2024
323.178
341.9018
497.4059
0.100059 0.173308 0.186809
192.0083
196.0695
283.8567
322.8641
353.0295
482.2705
0.100059 0.173308 0.249079
216.2587
226.9521
270.7087
298.2627
392.5047
459.7047
0.100059 0.173308 -0.311349
235.8897
236.7113
272.4222
272.844
429.3946
429.4155
0.100059 0.288847 0.0
191.0359
206.4908
321.0774
387.4593
422.4695
480.4907
0.100059 0.288847 0.06227
191.6199
212.7068
324.0289
389.9957
414.9006
482.8253
0.100059 0.288847 0.124539
198.6654
227.6338
326.822
387.7832
407.9463
486.0198
0.100059 0.288847 0.186809
216.4417
246.8035
322.0618
362.4116
425.4283
485.322
0.100059 0.288847 0.249079
242.4726
265.3432
310.7677
333.2209
447.1955
478.6433
0.100059 0.288847 -0.311349
266.0831
267.5486
309.2974
310.5391
465.5039
466.0453
0.100059 0.404385 0.0
241.9702
247.5111
358.5668
436.9708
444.6489
474.0216
0.100059 0.404385 0.06227
237.1696
253.7606
358.3149
424.664
447.6015
483.4448
0.100059 0.404385 0.124539
232.0922
267.0209
353.9224
399.3547
460.0382
496.2586
0.100059 0.404385 0.186809
235.3711
284.0311
340.0934
373.9233
476.3956
504.4775
0.100059 0.404385 0.249079
250.7028
294.4894
323.4949
353.023
491.4733
506.576
0.100059 0.404385 -0.311349
274.5883
275.1178
333.88
334.3389
502.0397
502.1202
0.100059 0.519924 0.0
256.674
288.2602
376.1517
412.9863
460.8441
498.5279
0.100059 0.519924 0.06227
257.2788
286.2306
371.5959
406.5859
467.644
502.8863
0.100059 0.519924 0.124539
253.5717
290.3854
356.0438
394.0218
483.006
511.8912
0.100059 0.519924 0.186809
249.3167
304.6232
331.3071
380.2102
499.6392
519.7807
0.100059 0.519924 0.249079
255.3136
299.045
326.8627
364.2994
512.9816
523.4045
0.100059 0.519924 -0.311349
272.7586
273.7514
345.8762
346.1384
520.7613
521.5881
0.200119 0.346616 0.0
241.7784
275.1684
352.2166
444.3407
446.9708
449.0963
0.200119 0.346616 0.06227
236.5031
278.8505
358.2788
419.796
448.5925
468.3614
0.200119 0.346616 0.124539
228.6628
288.4652
368.1631
389.3814
454.6682
483.7107
0.200119 0.346616 0.186809
229.6417
298.6365
359.7708
371.0518
466.0269
492.4637
0.200119 0.346616 0.249079
243.7447
293.2487
346.5322
365.2671
479.225
494.3542
0.200119 0.346616 -0.311349
267.6643
268.6339
354.1864
354.8204
489.5318
489.6315
0.200119 0.462155 0.0
289.2552
314.2798
389.727
413.1105
450.3834
480.6152
0.200119 0.462155 0.06227
278.6429
319.4976
387.6215
405.7014
459.8405
483.515
0.200119 0.462155 0.124539
260.1294
326.867
367.1024
408.8962
473.1316
491.8562
0.200119 0.462155 0.186809
247.437
316.0147
360.5053
408.7579
485.8628
500.7895
0.200119 0.462155 0.249079
247.8147
287.7195
373.2571
401.1397
497.0411
505.4814
0.200119 0.462155 -0.311349
262.1946
262.6159
388.3356
388.4405
503.9804
504.2872
0.200119 0.577693 0.0
315.0367
324.953
390.981
409.6468
447.4377
491.4682
0.200119 0.577693 0.06227
299.6399
335.4482
372.1113
420.2199
454.8908
493.6232
0.200119 0.577693 0.124539
276.9727
341.9229
349.6155
426.5177
471.4569
499.5365
0.200119 0.577693 0.186809
258.4077
309.9487
365.9837
423.5271
488.5862
506.3296
0.200119 0.577693 0.249079
251.4701
280.73
383.3712
413.8825
501.6562
510.2307
0.200119 0.577693 -0.311349
259.0716
260.0149
399.8161
400.0159
508.6404
509.2606
0.300178 0.519924 0.0
330.7423
369.0454
377.1923
416.5885
439.8202
482.4224
0.300178 0.519924 0.06227
317.8971
357.8286
377.1021
426.5003
450.6565
481.3943
0.300178 0.519924 0.124539
292.2877
328.842
386.1162
442.8216
469.061
479.9377
0.300178 0.519924 0.186809
268.3748
297.5375
399.7576
448.934
483.5514
484.1546
0.300178 0.519924 0.249079
254.4495
271.0449
415.1879
442.4303
491.166
493.0961
0.300178 0.519924 -0.311349
255.1194
255.4711
430.0385
430.1486
495.2423
495.2953
P	=	2000.12	V	=	101.07556	E	=	-655.3726217
0.0 0.0 0.0
-0.0
-0.0
0.0
290.5712
290.5712
583.4784
0.0 0.0 0.062296
44.8549
44.8549
105.1772
286.827
286.827
578.6436
0.0 0.0 0.124592
87.9913
87.9913
205.8399
275.5384
275.5384
563.6856
0.0 0.0 0.186888
128.4478
128.4478
256.8089
256.8089
297.9893
537.4292
0.0 0.0 0.249184
166.0417
166.0417
231.372
231.372
378.5507
498.4461
0.0 0.0 -0.31148
200.6231
200.6231
200.6308
200.6308
445.5775
445.6365
0.0 0.115521 0.0
83.0316
87.8918
186.1503
305.2877
333.6552
574.5687
0.0 0.115521 0.062296
99.2781
107.0918
205.6281
301.8493
329.9109
570.2005
0.0 0.115521 0.124592
126.1162
145.8047
259.0168
291.5218
318.7176
556.7459
0.0 0.115521 0.186888
158.4599
181.146
274.3687
300.1409
327.6352
533.2446
0.0 0.115521 0.249184
191.4018
214.5813
251.0358
275.8903
394.3227
498.5467
0.0 0.115521 -0.31148
222.7703
222.8741
246.4695
247.01
451.965
452.2496
0.0 0.231042 0.0
161.2935
161.9341
337.7467
339.5747
420.1414
549.1542
0.0 0.231042 0.062296
169.1534
170.9819
334.8932
349.241
415.0069
547.1092
0.0 0.231042 0.124592
188.0781
196.4879
326.2968
374.1007
400.966
540.5366
0.0 0.231042 0.186888
213.4678
230.6245
311.8989
373.3477
413.2497
528.1426
0.0 0.231042 0.249184
240.9921
268.2231
292.1027
343.5809
449.7155
508.6589
0.0 0.231042 -0.31148
267.7882
268.0333
306.3277
308.333
481.8017
482.9508
0.0 0.346564 0.0
212.4004
230.7892
369.0828
442.2933
495.917
511.5737
0.0 0.346564 0.062296
218.4857
232.4165
366.6195
447.7335
478.0553
524.8383
0.0 0.346564 0.124592
234.8785
240.2333
359.1005
439.019
473.7074
537.396
0.0 0.346564 0.186888
257.5055
258.5078
346.3737
404.6324
494.5989
543.0837
0.0 0.346564 0.249184
282.4504
287.6821
328.6785
365.5301
515.902
541.2102
0.0 0.346564 -0.31148
306.7737
306.9602
324.4847
325.6852
531.7212
532.3585
0.0 0.462085 0.0
238.2293
286.585
389.3815
471.0277
496.5591
539.8128
0.0 0.462085 0.062296
243.9479
283.0851
387.0199
457.7999
504.6028
546.5254
0.0 0.462085 0.124592
259.5213
277.7116
379.7541
429.4744
521.8205
558.5432
0.0 0.462085 0.186888
280.0942
281.2473
367.4086
394.6275
541.0272
567.8012
0.0 0.462085 0.249184
295.7062
305.3843
350.2071
357.513
557.1742
571.2893
0.0 0.462085 -0.31148
322.4256
323.4751
328.996
329.0937
567.4725
567.9101
0.0 -0.577606 0.0
245.4993
312.2058
396.1966
449.6141
512.9516
553.0279
0.0 -0.577606 0.062296
251.1601
306.4661
393.8075
440.0643
520.016
558.0253
0.0 -0.577606 0.124592
266.5559
295.3825
386.51
416.1291
536.6829
568.3179
0.0 -0.577606 0.186888
288.0851
290.322
374.1343
384.7785
555.1546
577.3157
0.0 -0.577606 0.249184
298.6
312.0865
351.1793
356.9102
570.1641
581.4664
0.0 -0.577606 -0.31148
319.3789
321.5737
335.592
335.8554
578.7546
579.6488
0.100044 0.173282 0.0
141.1505
158.4543
283.5359
347.6394
389.7264
557.3788
0.100044 0.173282 0.062296
151.9859
165.4904
293.8827
346.9993
385.243
554.3137
0.100044 0.173282 0.124592
178.9078
184.0389
311.9012
353.6089
372.0311
544.8325
0.100044 0.173282 0.186888
208.8385
212.7654
308.8245
350.9498
386.7764
528.1689
0.100044 0.173282 0.249184
235.1743
246.2345
294.3258
323.8456
429.9508
503.4301
0.100044 0.173282 -0.31148
256.437
257.2862
295.6403
296.1215
470.2337
470.335
0.100044 0.288803 0.0
208.08
224.5982
349.5411
423.8052
460.737
525.6246
0.100044 0.288803 0.062296
208.6379
231.352
352.6776
426.4052
452.5425
528.3239
0.100044 0.288803 0.124592
216.1676
247.5393
355.5957
422.1647
446.5367
532.0713
0.100044 0.288803 0.186888
235.2914
268.3194
350.3444
394.0388
465.8501
531.4848
0.100044 0.288803 0.249184
263.3727
288.3708
337.9773
362.1537
489.708
524.2305
0.100044 0.288803 -0.31148
288.9956
290.5325
336.3094
337.6166
509.8169
510.4011
0.100044 0.404324 0.0
263.4382
268.8889
390.3714
477.5552
485.2857
518.1782
0.100044 0.404324 0.062296
257.9003
276.0209
390.0649
462.9557
489.7031
528.5045
0.100044 0.404324 0.124592
252.4581
290.4708
385.1604
435.1181
503.3847
542.8279
0.100044 0.404324 0.186888
256.1454
308.9059
369.955
407.3743
521.3476
552.1291
0.100044 0.404324 0.249184
272.7888
320.0863
352.1057
384.5235
538.0159
554.5957
0.100044 0.404324 -0.31148
298.5286
299.144
363.5791
364.0619
549.7105
549.724
0.100044 0.519846 0.0
279.625
312.8586
409.9154
449.7402
503.2674
545.642
0.100044 0.519846 0.062296
279.9844
311.0303
404.704
443.0555
510.7729
550.3395
0.100044 0.519846 0.124592
275.6946
316.0514
387.3696
429.7563
527.79
560.2045
0.100044 0.519846 0.186888
271.3259
331.5857
360.4294
414.693
546.377
568.9969
0.100044 0.519846 0.249184
278.048
325.3802
355.9988
397.1575
561.421
573.0906
0.100044 0.519846 -0.31148
296.8882
298.1279
376.8604
377.1917
570.2745
571.0018
0.200089 0.346564 0.0
262.7196
299.1998
383.11
484.3916
489.7464
490.3045
0.200089 0.346564 0.062296
257.0626
303.1426
389.7084
457.423
491.4811
511.6028
0.200089 0.346564 0.124592
248.6683
313.4554
400.5413
423.9432
498.0101
528.9083
0.200089 0.346564 0.186888
249.772
324.3287
391.6362
403.8302
510.3044
538.892
0.200089 0.346564 0.249184
265.0016
318.3939
377.3143
397.6232
524.7059
541.1958
0.200089 0.346564 -0.31148
290.7829
291.8776
385.6163
386.2561
536.0033
536.0882
0.200089 0.462085 0.0
313.9136
342.0431
423.9294
449.9429
491.3603
526.2276
0.200089 0.462085 0.062296
302.5001
347.612
421.6103
441.8701
502.1443
529.1299
0.200089 0.462085 0.124592
282.6194
355.3268
399.5568
445.4689
517.2855
537.874
0.200089 0.462085 0.186888
269.1306
343.2322
392.7866
445.555
531.4164
547.7146
0.200089 0.462085 0.249184
269.737
312.7367
406.7327
437.3081
543.7958
553.0317
0.200089 0.462085 -0.31148
285.2555
285.7481
423.2733
423.3881
551.4913
551.7761
0.200089 0.577606 0.0
341.8843
353.8312
425.2479
445.8199
487.9988
538.0324
0.200089 0.577606 0.062296
325.2777
365.2387
404.4257
457.847
496.1829
540.2259
0.200089 0.577606 0.124592
300.7923
371.4788
380.8173
465.2732
514.5141
546.4378
0.200089 0.577606 0.186888
280.9607
336.8632
398.7763
462.2284
533.6591
553.8225
0.200089 0.577606 0.249184
273.7396
305.3942
417.9209
451.639
548.3994
558.1447
0.200089 0.577606 -0.31148
282.0493
283.1073
436.1005
436.3007
556.3739
556.9717
0.300133 0.519846 0.0
358.9672
402.342
409.9992
452.9924
478.6886
528.4139
0.300133 0.519846 0.062296
345.0091
388.7966
411.1574
464.0153
490.7561
527.1838
0.300133 0.519846 0.124592
317.3241
357.0764
421.1711
482.4306
511.3535
525.197
0.300133 0.519846 0.186888
291.6912
323.2652
436.1303
490.0095
528.3697
528.4495
0.300133 0.519846 0.249184
276.9419
294.8508
453.1289
483.2084
536.5756
538.5383
0.300133 0.519846 -0.31148
277.8185
278.1378
469.5635
469.6564
541.0438
541.1092
P	=	2499.86	V	=	96.37534	E	=	-655.30099969
0.0 0.0 0.0
-0.0
-0.0
0.0
311.7543
311.7543
628.4998
0.0 0.0 0.062317
47.6928
47.6928
112.8702
307.6695
307.6695
623.2033
0.0 0.0 0.124633
94.0781
94.0781
221.0378
295.5197
295.5198
606.8922
0.0 0.0 0.18695
138.1342
138.1342
275.69
275.69
320.2384
578.4307
0.0 0.0 0.249266
179.1346
179.1346
248.9479
248.9479
407.0752
536.3438
0.0 0.0 -0.311583
216.3818
216.3818
216.3818
216.3818
479.3747
479.3747
0.0 0.115503 0.0
88.8604
94.1349
200.3137
327.3807
357.7042
618.7183
0.0 0.115503 0.062317
106.1939
114.0978
221.3795
323.6699
353.5825
613.9568
0.0 0.115503 0.124633
134.9973
155.1758
278.8821
312.5755
341.4383
599.3367
0.0 0.115503 0.18695
170.0911
193.5903
294.3408
321.495
352.5714
573.946
0.0 0.115503 0.249266
205.8829
230.1674
269.6453
295.6027
424.2154
536.6233
0.0 0.115503 -0.311583
239.6601
239.6601
264.6093
264.6093
486.5677
486.5677
0.0 0.231006 0.0
172.6222
173.5686
361.9927
365.2852
450.3212
590.7967
0.0 0.231006 0.062317
181.2188
182.8156
358.9305
375.6668
444.7213
588.6404
0.0 0.231006 0.124633
201.4504
209.7692
349.6796
402.202
429.7129
581.639
0.0 0.231006 0.18695
228.7534
246.5229
334.2415
399.2319
444.6659
568.5117
0.0 0.231006 0.249266
258.401
287.3724
313.0642
366.7217
483.6338
547.9303
0.0 0.231006 -0.311583
287.2347
287.2347
328.4195
328.4195
519.3078
519.3078
0.0 0.346509 0.0
227.9398
246.929
395.6554
475.3231
532.2105
549.535
0.0 0.346509 0.062317
234.3223
248.8319
392.9402
480.8954
513.2114
563.9752
0.0 0.346509 0.124633
251.6386
257.4271
384.733
470.3249
509.5845
577.8626
0.0 0.346509 0.18695
275.7606
277.1188
370.9955
433.1266
532.0099
584.3539
0.0 0.346509 0.249266
302.5133
308.3827
352.0244
390.8107
554.849
582.5964
0.0 0.346509 -0.311583
328.6887
328.6887
347.8243
347.8243
572.4904
572.4904
0.0 0.462012 0.0
255.9844
306.4756
417.6556
505.189
533.1446
580.2101
0.0 0.462012 0.062317
261.859
303.1331
414.953
490.8933
542.0578
587.5495
0.0 0.462012 0.124633
278.0579
298.1282
406.8692
460.4307
560.8848
600.8545
0.0 0.462012 0.18695
300.8859
301.113
393.5062
423.1282
581.8372
611.0725
0.0 0.462012 0.249266
317.1409
327.0623
375.1582
383.5019
599.52
614.7937
0.0 0.462012 -0.311583
346.2872
346.2872
352.5364
352.5364
610.9186
610.9186
0.0 -0.577516 0.0
263.9472
333.79
425.0906
481.8908
550.5579
594.7937
0.0 -0.577516 0.062317
269.6718
328.016
422.3396
471.8154
558.3368
600.2708
0.0 -0.577516 0.124633
285.5703
316.9028
414.159
446.4335
576.7072
611.5956
0.0 -0.577516 0.18695
308.4172
311.9414
400.7372
412.9433
597.0364
621.4852
0.0 -0.577516 0.249266
320.7531
334.3109
376.8665
382.3927
613.5078
625.9754
0.0 -0.577516 -0.311583
343.9845
343.9845
359.7861
359.7861
623.4277
623.4277
0.100029 0.173255 0.0
151.0646
169.5216
304.8446
373.0484
417.651
599.8299
0.100029 0.173255 0.062317
162.5246
177.051
315.8099
372.4645
412.7023
596.5452
0.100029 0.173255 0.124633
191.0838
196.9519
334.5381
380.209
398.247
586.379
0.100029 0.173255 0.18695
223.6976
227.2141
330.9092
375.4478
416.3455
568.5028
0.100029 0.173255 0.249266
252.1151
263.2762
315.2862
346.3539
462.9183
541.9488
0.100029 0.173255 -0.311583
275.3534
275.3534
316.4306
316.4306
506.332
506.332
0.100029 0.288758 0.0
222.6495
240.4306
374.5777
455.7311
494.1279
564.9225
0.100029 0.288758 0.062317
223.3842
247.5371
377.8915
458.2968
485.4264
567.969
0.100029 0.288758 0.124633
231.5082
264.7563
380.9212
452.1454
480.3835
572.2586
0.100029 0.288758 0.18695
251.8088
287.1804
375.1941
421.5507
501.2533
571.9303
0.100029 0.288758 0.249266
281.5922
308.9625
362.0481
386.9296
526.8378
564.4107
0.100029 0.288758 -0.311583
309.9208
309.9208
360.589
360.589
549.0429
549.0429
0.100029 0.404261 0.0
282.4053
287.5684
418.1966
512.9933
520.6763
556.741
0.100029 0.404261 0.062317
276.2436
295.5966
417.7981
496.3373
526.5497
567.838
0.100029 0.404261 0.124633
270.6675
311.047
412.3898
466.3809
541.3793
583.589
0.100029 0.404261 0.18695
274.621
330.7311
396.1059
436.611
560.7617
593.926
0.100029 0.404261 0.249266
292.0811
342.6249
377.4822
411.8777
578.8301
596.7158
0.100029 0.404261 -0.311583
319.9219
319.9219
389.8261
389.8261
591.4869
591.4869
0.100029 0.519764 0.0
300.0765
334.4417
439.4013
481.9028
540.1296
586.7997
0.100029 0.519764 0.062317
300.075
333.04
433.5594
474.9436
548.3767
591.8857
0.100029 0.519764 0.124633
295.35
338.9193
414.6744
460.9353
567.0256
602.6875
0.100029 0.519764 0.18695
291.0053
355.3994
386.0448
444.7835
587.4047
612.317
0.100029 0.519764 0.249266
298.1178
348.7292
381.7824
425.9213
603.9774
616.6881
0.100029 0.519764 -0.311583
319.0208
319.0208
404.2973
404.2973
614.0307
614.0307
0.200057 0.346509 0.0
280.9561
320.1236
410.1887
519.2491
526.0932
527.3552
0.200057 0.346509 0.062317
275.0322
324.3215
417.2609
490.2291
529.1577
549.1689
0.200057 0.346509 0.124633
266.2585
335.2671
428.922
454.2191
536.0416
568.2223
0.200057 0.346509 0.18695
267.5144
346.7025
419.6924
432.4912
549.1748
579.3852
0.200057 0.346509 0.249266
283.726
340.3492
404.334
425.8231
564.66
582.1866
0.200057 0.346509 -0.311583
311.6972
311.6972
413.3434
413.3434
576.8199
576.8199
0.200057 0.462012 0.0
335.4959
366.3855
453.7424
481.9207
527.0233
566.2348
0.200057 0.462012 0.062317
323.4979
372.2541
451.2268
473.354
538.9686
569.1152
0.200057 0.462012 0.124633
302.6323
380.1851
428.0139
477.3111
555.8395
578.1663
0.200057 0.462012 0.18695
288.4885
367.1242
421.1845
477.6085
571.3149
588.7953
0.200057 0.462012 0.249266
289.1236
335.0524
436.1112
468.8412
584.8712
594.6421
0.200057 0.462012 -0.311583
306.0749
306.0749
453.8805
453.8805
593.3037
593.3037
0.200057 0.577516 0.0
365.3121
379.2706
455.0769
477.2617
523.3146
578.8113
0.200057 0.577516 0.062317
347.7227
391.439
432.6512
490.5177
532.1694
581.0485
0.200057 0.577516 0.124633
321.823
397.4742
408.1914
498.9226
552.1302
587.5478
0.200057 0.577516 0.18695
301.0924
360.7301
427.5158
495.9018
573.1238
595.4743
0.200057 0.577516 0.249266
293.7462
327.4244
448.2218
484.6207
589.3733
600.1675
0.200057 0.577516 -0.311583
303.2585
303.2585
468.0027
468.0027
598.5201
598.5201
0.300086 0.519764 0.0
383.538
431.5258
438.4396
484.6823
512.4675
568.7722
0.300086 0.519764 0.062317
368.7077
415.7397
441.0032
496.6513
525.5528
567.3324
0.300086 0.519764 0.124633
339.4111
381.8583
451.8408
516.8893
548.0807
564.8437
0.300086 0.519764 0.18695
312.4983
346.1198
467.9312
525.7994
566.8921
567.7942
0.300086 0.519764 0.249266
297.2099
316.2378
486.3399
518.8486
576.3847
578.2701
0.300086 0.519764 -0.311583
298.4753
298.4753
504.2123
504.2123
581.2181
581.2181
P	=	3000.05	V	=	92.50397	E	=	-655.22880978
0.0 0.0 0.0
-0.0
-0.0
0.0
330.1815
330.1815
668.3309
0.0 0.0 0.062326
50.5609
50.5609
119.6435
325.8843
325.8843
662.5678
0.0 0.0 0.124653
99.6522
99.6522
234.3314
313.0605
313.0605
644.8972
0.0 0.0 0.186979
146.2017
146.2017
292.0386
292.0386
339.558
614.2648
0.0 0.0 0.249306
189.5389
189.5389
263.6122
263.6122
431.7298
569.244
0.0 0.0 -0.311632
229.0094
229.0094
229.0094
229.0094
508.5611
508.5611
0.0 0.115491 0.0
94.2617
99.6712
212.8556
346.6261
378.6744
657.7447
0.0 0.115491 0.062326
112.4544
120.5784
235.3296
342.714
374.311
652.5791
0.0 0.115491 0.124653
142.931
163.7919
296.32
330.9862
361.4225
636.7873
0.0 0.115491 0.186979
179.9991
204.406
311.6453
340.1667
374.3655
609.535
0.0 0.115491 0.249306
217.8108
243.088
285.4059
312.5631
450.2959
569.7001
0.0 0.115491 -0.311632
253.5742
253.5742
279.5922
279.5922
516.469
516.469
0.0 0.230982 0.0
182.7058
183.8641
383.1652
388.0587
476.75
627.494
0.0 0.230982 0.062326
191.9382
193.3583
379.9161
399.0714
470.7744
625.203
0.0 0.230982 0.124653
213.2788
221.6535
370.093
426.9297
454.9836
617.7734
0.0 0.230982 0.186979
242.0668
260.3593
353.6913
421.984
472.3868
603.8477
0.0 0.230982 0.249306
273.3476
303.4147
331.2047
387.3486
513.7124
581.9965
0.0 0.230982 -0.311632
303.8299
303.8299
346.7508
346.7508
551.5892
551.5892
0.0 0.346474 0.0
241.634
260.6931
418.908
504.5463
564.1692
582.7558
0.0 0.346474 0.062326
248.3256
262.7868
415.9977
510.1098
544.0925
598.3473
0.0 0.346474 0.124653
266.4994
272.0571
407.2184
497.5792
541.2473
613.4118
0.0 0.346474 0.186979
291.8605
293.0253
392.5706
458.0297
564.966
620.5063
0.0 0.346474 0.249306
320.0483
326.1132
372.4125
413.2056
589.1791
618.6999
0.0 0.346474 -0.311632
347.6956
347.6956
367.7724
367.7724
607.9402
607.9402
0.0 0.461965 0.0
271.5565
323.0218
442.4359
534.7418
565.4929
615.9282
0.0 0.461965 0.062326
277.6781
319.7081
439.5129
519.5556
575.068
623.7167
0.0 0.461965 0.124653
294.6005
314.915
430.8039
487.3058
595.1657
637.9476
0.0 0.461965 0.186979
318.3209
318.7766
416.4944
447.8973
617.5276
648.9186
0.0 0.461965 0.249306
335.8101
346.0897
396.9628
406.0579
636.4515
652.895
0.0 0.461965 -0.311632
366.7293
366.7293
372.9912
372.9912
648.6981
648.6981
0.0 -0.577456 0.0
280.0908
351.6539
450.4301
509.6003
583.8156
631.7655
0.0 -0.577456 0.062326
286.0411
345.8097
447.4448
499.0765
592.0818
637.5571
0.0 -0.577456 0.124653
302.6183
334.6598
438.607
472.4812
611.6803
649.5953
0.0 -0.577456 0.186979
326.551
330.0385
424.208
437.2884
633.4804
660.1309
0.0 -0.577456 0.249306
339.7846
353.7954
399.2824
404.6619
651.2367
664.8604
0.0 -0.577456 -0.311632
364.5279
364.5279
380.6981
380.6981
662.0064
662.0064
0.100018 0.173237 0.0
160.0035
179.3414
323.627
395.3589
442.0325
637.2859
0.100018 0.173237 0.062326
171.9389
187.3046
335.1431
394.8927
436.7527
633.757
0.100018 0.173237 0.124653
201.8844
208.3324
354.3237
403.7827
421.311
622.8747
0.100018 0.173237 0.186979
236.5695
239.9473
350.1092
396.9431
442.3612
603.8213
0.100018 0.173237 0.249306
266.5817
278.0276
333.4106
365.9131
491.7244
575.5947
0.100018 0.173237 -0.311632
291.106
291.106
334.2007
334.2007
537.7787
537.7787
0.100018 0.288728 0.0
235.2873
254.4341
396.5692
483.8825
523.4285
599.4467
0.100018 0.288728 0.062326
236.1068
261.883
399.9803
486.4042
514.3347
602.8047
0.100018 0.288728 0.124653
244.7435
279.9914
403.0273
478.3534
510.3344
607.5874
0.100018 0.288728 0.186979
266.2005
303.6072
396.883
445.6577
532.5089
607.4048
0.100018 0.288728 0.249306
297.5915
326.5319
382.9192
409.0168
559.5758
599.4734
0.100018 0.288728 -0.311632
327.4417
327.4417
381.3131
381.3131
583.1409
583.1409
0.100018 0.404219 0.0
299.1072
303.3015
442.6061
544.2279
551.5111
590.7726
0.100018 0.404219 0.062326
291.9162
312.5649
442.1334
525.4303
559.0232
602.4734
0.100018 0.404219 0.124653
286.0871
329.0416
436.2939
493.5762
574.8777
619.3805
0.100018 0.404219 0.186979
290.4741
349.794
418.9772
462.1698
595.389
630.5532
0.100018 0.404219 0.249306
309.0086
362.1767
399.5242
436.0096
614.5541
633.5943
0.100018 0.404219 -0.311632
338.3291
338.3291
412.6338
412.6338
628.0252
628.0252
0.100018 0.519711 0.0
318.0259
352.4441
465.2259
509.6371
572.687
623.1773
0.100018 0.519711 0.062326
317.6574
351.4935
458.8285
502.5668
581.4815
628.5242
0.100018 0.519711 0.124653
312.2141
358.5374
438.5455
488.2002
601.3904
639.9689
0.100018 0.519711 0.186979
307.8255
376.1426
408.347
471.2131
623.2053
650.2189
0.100018 0.519711 0.249306
315.6031
368.9786
404.232
451.1442
641.0158
654.8313
0.100018 0.519711 -0.311632
337.7402
337.7402
428.1299
428.1299
651.8852
651.8852
0.200037 0.346474 0.0
296.4502
338.5953
434.0313
549.7415
557.3924
560.574
0.200037 0.346474 0.062326
290.3234
342.9723
441.4428
518.7946
562.4695
582.1729
0.200037 0.346474 0.124653
281.3244
354.3888
453.7164
480.5174
569.6732
602.838
0.200037 0.346474 0.186979
282.8818
366.255
444.1073
457.5516
583.3976
614.9983
0.200037 0.346474 0.249306
300.0647
359.4764
428.022
450.5843
599.6473
618.1168
0.200037 0.346474 -0.311632
329.468
329.468
437.4535
437.4535
612.4724
612.4724
0.200037 0.461965 0.0
353.7218
387.8164
479.9278
509.6948
558.3091
601.5189
0.200037 0.461965 0.062326
341.2668
393.8906
477.0623
500.8552
571.3028
604.3859
0.200037 0.461965 0.124653
319.6007
401.9359
452.7881
505.2384
589.7362
613.6296
0.200037 0.461965 0.186979
305.0792
387.8713
446.0391
505.7435
606.2948
624.8307
0.200037 0.461965 0.249306
306.0295
354.3132
461.8346
496.5409
620.6739
631.0672
0.200037 0.461965 -0.311632
323.9417
323.9417
480.679
480.679
629.6398
629.6398
0.200037 0.577456 0.0
385.1457
401.6434
480.8406
504.7418
554.4436
614.7427
0.200037 0.577456 0.062326
366.8884
414.36
457.0199
519.1246
563.8372
617.0043
0.200037 0.577456 0.124653
339.8158
419.8981
432.2142
528.5081
585.1087
623.6898
0.200037 0.577456 0.186979
318.3743
381.3476
452.7411
525.5341
607.587
631.9704
0.200037 0.577456 0.249306
311.0001
346.4933
474.7573
513.5668
625.061
636.8575
0.200037 0.577456 -0.311632
321.1539
321.1539
495.84
495.84
634.9678
634.9678
0.300055 0.519711 0.0
404.5282
457.2246
463.026
512.4915
542.0713
604.2441
0.300055 0.519711 0.062326
388.9836
439.0866
467.2198
525.2786
556.0897
602.6504
0.300055 0.519711 0.124653
358.3697
403.2696
478.8505
547.094
580.3333
599.7501
0.300055 0.519711 0.186979
330.4189
365.8643
495.9047
557.1853
600.6251
602.3021
0.300055 0.519711 0.249306
314.6899
334.7069
515.4816
550.1161
611.0814
612.9065
0.300055 0.519711 -0.311632
316.1595
316.1595
534.5458
534.5458
616.1284
616.1284
P	=	3200.14	V	=	91.13285	E	=	-655.19992284
0.0 0.0 0.0
-0.0
-0.0
0.0
336.9568
336.9568
683.2255
0.0 0.0 0.06233
51.6815
51.6815
122.2474
332.5831
332.5831
677.2845
0.0 0.0 0.124661
101.7776
101.7776
239.3992
319.5062
319.5062
659.0927
0.0 0.0 0.186991
149.1906
149.1906
298.0198
298.0198
346.848
627.6267
0.0 0.0 0.249322
193.3158
193.3158
268.9361
268.9361
440.9543
581.4924
0.0 0.0 -0.311652
233.5688
233.5688
233.5688
233.5688
519.4326
519.4326
0.0 0.115485 0.0
96.2302
101.7583
217.6353
353.7142
386.4481
672.329
0.0 0.115485 0.06233
114.8155
123.0226
240.6076
349.7243
381.9803
667.0129
0.0 0.115485 0.124661
145.9039
167.0218
302.8876
337.7501
368.7802
650.7768
0.0 0.115485 0.186991
183.6627
208.3729
317.9785
346.9975
382.5417
622.807
0.0 0.115485 0.249322
222.1695
247.7772
291.1479
318.7325
460.0255
582.0077
0.0 0.115485 -0.311652
258.6342
258.6342
285.0232
285.0232
527.5894
527.5894
0.0 0.23097 0.0
186.4082
187.64
390.9669
396.5975
486.5857
641.1732
0.0 0.23097 0.06233
195.8635
197.2751
387.6383
407.8027
480.4337
638.8441
0.0 0.23097 0.124661
217.5994
226.0742
377.5804
436.0778
464.2938
631.2656
0.0 0.23097 0.186991
246.9237
265.4132
360.8017
430.2832
482.6466
617.0201
0.0 0.23097 0.249322
278.7986
309.2042
337.8234
394.8253
524.8529
594.6542
0.0 0.23097 -0.311652
309.8815
309.8815
353.3653
353.3653
563.5554
563.5554
0.0 0.346455 0.0
246.4979
265.7772
427.4166
515.2968
575.9213
595.0773
0.0 0.346455 0.06233
253.3018
267.9641
424.4271
520.843
555.4226
611.1008
0.0 0.346455 0.124661
271.7913
277.4813
415.4188
507.5584
552.8243
626.6073
0.0 0.346455 0.186991
297.6166
298.834
400.4143
467.0777
577.039
633.9033
0.0 0.346455 0.249322
326.3483
332.4902
379.7995
421.2777
601.79
632.0405
0.0 0.346455 -0.311652
354.5559
354.5559
374.9224
374.9224
621.0
621.0
0.0 0.46194 0.0
276.9483
329.143
451.3988
545.6369
577.2354
628.7996
0.0 0.46194 0.06233
283.1708
325.8452
448.398
530.0798
587.0711
636.8138
0.0 0.46194 0.124661
300.3785
321.1168
439.4598
497.1189
607.6657
651.4681
0.0 0.46194 0.186991
324.6879
324.9817
424.7843
456.8788
630.5703
662.7594
0.0 0.46194 0.249322
342.5274
352.8119
404.7789
414.1672
649.9585
666.838
0.0 0.46194 -0.311652
374.042
374.042
380.2679
380.2679
662.5191
662.5191
0.0 -0.577424 0.0
285.6253
358.262
459.5421
519.7837
595.8301
644.9567
0.0 -0.577424 0.06233
291.6743
352.3883
456.4798
509.0681
604.3144
650.9212
0.0 -0.577424 0.124661
308.5292
341.2047
447.4117
481.9807
624.4339
663.3217
0.0 -0.577424 0.186991
332.8766
336.6433
432.6381
446.109
646.8089
674.1646
0.0 -0.577424 0.249322
346.6363
360.6285
407.338
412.603
665.0248
679.0166
0.0 -0.577424 -0.311652
371.8782
371.8782
388.0872
388.0872
676.0764
676.0764
0.100013 0.173227 0.0
163.2802
182.9954
330.6518
403.6559
451.1059
651.2606
0.100013 0.173227 0.06233
175.4402
191.11
342.3322
403.225
445.6708
647.6484
0.100013 0.173227 0.124661
205.9
212.5315
361.6185
412.5351
429.795
636.5043
0.100013 0.173227 0.186991
241.2906
244.5934
357.1431
404.7919
452.0266
616.9908
0.100013 0.173227 0.249322
271.8641
283.3668
340.0167
373.0204
502.4217
588.1046
0.100013 0.173227 -0.311652
296.8408
296.8408
340.6406
340.6406
549.4512
549.4512
0.100013 0.288712 0.0
239.953
259.5215
404.6733
494.2965
534.2868
612.2764
0.100013 0.288712 0.06233
240.8186
267.0957
408.1143
496.7642
525.0073
615.7722
0.100013 0.288712 0.124661
249.6292
285.5182
411.1525
487.9616
521.3222
620.7525
0.100013 0.288712 0.186991
271.435
309.5511
404.8166
454.4342
543.9914
620.6018
0.100013 0.288712 0.249322
303.3576
332.8808
390.5056
417.0104
571.6492
612.4802
0.100013 0.288712 -0.311652
333.768
333.768
388.7994
388.7994
595.755
595.755
0.100013 0.404197 0.0
305.0404
309.1276
451.5207
555.6339
562.9031
603.1651
0.100013 0.404197 0.06233
297.6097
318.7084
451.0235
536.1146
570.8758
615.1588
0.100013 0.404197 0.124661
291.7155
335.5104
445.0139
503.5271
587.0869
632.5473
0.100013 0.404197 0.186991
296.2185
356.6224
427.2842
471.4705
608.0434
644.0481
0.100013 0.404197 0.249322
315.0827
369.1759
407.4796
444.7354
627.655
647.1768
0.100013 0.404197 -0.311652
344.9164
344.9164
420.8459
420.8459
641.4608
641.4608
0.100013 0.519682 0.0
324.3192
359.1066
474.5813
519.8338
584.4786
636.2215
0.100013 0.519682 0.06233
323.8583
358.2775
467.9808
512.7008
593.504
641.7086
0.100013 0.519682 0.124661
318.2626
365.623
447.184
498.1596
613.9294
653.4743
0.100013 0.519682 0.186991
313.8796
383.5677
416.3943
480.814
636.3087
664.0208
0.100013 0.519682 0.249322
321.8597
376.2266
412.2735
460.2478
654.5799
668.7624
0.100013 0.519682 -0.311652
344.4195
344.4195
436.6837
436.6837
665.7346
665.7346
0.200026 0.346455 0.0
302.1942
345.2563
442.7834
560.9689
568.9641
572.6973
0.200026 0.346455 0.06233
295.9896
349.6896
450.3372
529.286
574.6007
594.3882
0.200026 0.346455 0.124661
286.8779
361.2572
462.8507
490.1288
581.8937
615.665
0.200026 0.346455 0.186991
288.4773
373.2656
452.9829
466.7378
595.8808
628.1957
0.200026 0.346455 0.249322
305.9491
366.3435
436.5826
459.5856
612.4999
631.4195
0.200026 0.346455 -0.311652
335.8475
335.8475
446.1674
446.1674
625.6383
625.6383
0.200026 0.46194 0.0
360.4719
395.5098
489.476
519.9128
569.7092
614.2895
0.200026 0.46194 0.06233
347.8125
401.6676
486.4994
510.9449
583.1093
617.1657
0.200026 0.46194 0.124661
325.8113
409.7372
461.8204
515.4913
602.1031
626.5524
0.200026 0.46194 0.186991
311.1083
395.3237
455.0475
516.0356
619.0822
638.0472
0.200026 0.46194 0.249322
312.1309
361.2338
471.1392
506.618
633.8204
644.4732
0.200026 0.46194 -0.311652
330.3653
330.3653
490.389
490.389
643.018
643.018
0.200026 0.577424 0.0
392.4775
409.6644
490.3011
514.7376
565.7282
627.7006
0.200026 0.577424 0.06233
373.8929
422.6441
465.8966
529.5969
575.3477
629.9826
0.200026 0.577424 0.124661
346.358
428.0181
440.8991
539.3456
597.1572
636.7845
0.200026 0.577424 0.186991
324.6329
388.7851
461.865
536.3569
620.2316
645.2709
0.200026 0.577424 0.249322
317.2275
353.3595
484.3713
524.1055
638.1813
650.2975
0.200026 0.577424 -0.311652
327.5989
327.5989
505.9488
505.9488
648.3602
648.3602
0.300039 0.519682 0.0
412.2724
466.5331
472.0605
522.5561
552.808
617.1423
0.300039 0.519682 0.06233
396.4244
447.5764
476.7618
535.6885
567.2099
615.481
0.300039 0.519682 0.124661
365.276
411.0201
488.6619
558.1423
592.1392
612.4204
0.300039 0.519682 0.186991
336.9207
372.992
506.0746
568.664
613.025
614.8904
0.300039 0.519682 0.249322
321.0264
341.3809
526.0964
561.526
623.8315
625.6748
0.300039 0.519682 -0.311652
322.5646
322.5646
545.6079
545.6079
629.0012
629.0012
P	=	3400.21	V	=	89.84022	E	=	-655.17092922
0.0 0.0 0.0
-0.0
0.0
0.0
343.3885
343.3885
697.7066
0.0 0.0 0.062334
52.8289
52.8289
124.7947
338.9506
338.9506
691.5761
0.0 0.0 0.124668
103.9572
103.9572
244.4117
325.662
325.662
672.8638
0.0 0.0 0.187002
152.2483
152.2483
303.7863
303.7863
354.1321
640.6375
0.0 0.0 0.249336
197.1418
197.1418
274.1454
274.1454
450.1962
593.5385
0.0 0.0 -0.31167
238.1116
238.1116
238.1116
238.1116
530.2522
530.2522
0.0 0.115482 0.0
98.1735
103.7246
221.9962
360.4812
393.7512
686.5114
0.0 0.115482 0.062334
117.0862
125.3632
245.5842
356.4248
389.2255
681.0357
0.0 0.115482 0.124668
148.8385
170.1801
309.2906
344.2401
375.8231
664.3577
0.0 0.115482 0.187002
187.3202
212.3516
324.0991
353.6235
390.6245
635.7327
0.0 0.115482 0.249336
226.5158
252.4752
296.7556
324.7824
469.6902
594.0897
0.0 0.115482 -0.31167
263.6346
263.6346
290.4046
290.4046
538.5993
538.5993
0.0 0.230963 0.0
190.0939
191.2859
398.4987
404.5428
495.829
654.4892
0.0 0.230963 0.062334
199.6743
201.1283
395.1005
416.0514
489.5968
652.1086
0.0 0.230963 0.124668
221.8354
230.4159
384.8353
444.9052
473.3282
644.374
0.0 0.230963 0.187002
251.714
270.4379
367.7197
438.4041
492.7305
629.847
0.0 0.230963 0.249336
284.1759
314.9716
344.2955
402.1997
535.8126
607.0343
0.0 0.230963 -0.31167
315.8296
315.8296
359.9186
359.9186
575.304
575.304
0.0 0.346445 0.0
251.3051
270.8762
435.7475
525.561
587.2213
607.1068
0.0 0.346445 0.062334
258.2242
273.1376
432.6869
531.147
566.4713
623.4752
0.0 0.346445 0.124668
277.0345
282.8885
423.471
517.3044
564.1901
639.4395
0.0 0.346445 0.187002
303.3247
304.6334
408.1373
476.0133
588.9358
646.9881
0.0 0.346445 0.249336
332.5929
338.8484
387.0927
429.2838
614.2093
645.1146
0.0 0.346445 -0.31167
361.3448
361.3448
382.0291
382.0291
633.8311
633.8311
0.0 0.461926 0.0
282.3518
335.2911
460.3074
556.3342
588.7171
641.5282
0.0 0.461926 0.062334
288.6693
332.0189
457.2345
540.4342
598.8261
649.755
0.0 0.461926 0.124668
306.1525
327.3741
448.0825
506.8185
619.9367
664.8238
0.0 0.461926 0.187002
331.1173
331.1809
433.0606
465.7979
643.4029
676.4381
0.0 0.461926 0.249336
349.2895
359.5347
412.5966
422.254
663.2751
680.6188
0.0 0.461926 -0.31167
381.3673
381.3673
387.5507
387.5507
676.1674
676.1674
0.0 -0.577408 0.0
291.1956
364.8859
468.6612
529.8252
607.6992
658.1652
0.0 -0.577408 0.062334
297.3346
359.0092
465.5264
518.9386
616.3679
664.2795
0.0 -0.577408 0.124668
314.4528
347.8348
456.2404
491.3971
636.9559
677.0048
0.0 -0.577408 0.187002
339.2151
343.3496
441.1084
454.886
659.8972
688.1288
0.0 -0.577408 0.249336
353.574
367.4908
415.3943
420.5948
678.6141
693.0771
0.0 -0.577408 -0.31167
379.2764
379.2764
395.5229
395.5229
690.0063
690.0063
0.10001 0.173222 0.0
166.5325
186.4931
337.1632
411.5897
459.5994
664.8579
0.10001 0.173222 0.062334
178.8553
194.7892
349.1085
411.2259
454.088
661.1533
0.10001 0.173222 0.124668
209.8097
216.6629
368.6319
421.0495
437.9473
649.746
0.10001 0.173222 0.187002
245.9801
249.1822
363.9792
412.4472
461.5226
629.8158
0.10001 0.173222 0.249336
277.1075
288.6372
346.5104
380.0019
512.9559
600.3485
0.10001 0.173222 -0.31167
302.4885
302.4885
347.0037
347.0037
560.9276
560.9276
0.10001 0.288704 0.0
244.6146
264.4905
412.4011
504.258
544.6167
624.7805
0.10001 0.288704 0.062334
245.4852
272.2212
415.9158
506.7121
535.2853
628.3765
0.10001 0.288704 0.124668
254.4362
291.0073
419.0166
497.2799
532.0986
633.5365
0.10001 0.288704 0.187002
276.5868
315.489
412.5591
463.0528
555.2991
633.4521
0.10001 0.288704 0.249336
309.0269
339.2106
397.9619
424.8951
583.5168
625.1871
0.10001 0.288704 -0.31167
340.0055
340.0055
396.2
396.2
608.1146
608.1146
0.10001 0.404185 0.0
310.9123
314.9649
460.2245
566.6967
574.0477
615.3036
0.10001 0.404185 0.062334
303.2827
324.833
459.7181
546.5426
582.4809
627.5663
0.10001 0.404185 0.124668
297.3296
341.977
453.5785
513.2967
599.0938
645.4364
0.10001 0.404185 0.187002
301.9317
363.4695
435.4759
480.64
620.5101
657.2822
0.10001 0.404185 0.249336
321.096
376.1772
415.3407
453.3739
640.5513
660.5144
0.10001 0.404185 -0.31167
351.4393
351.4393
428.9991
428.9991
654.6685
654.6685
0.10001 0.519667 0.0
330.5843
365.7654
483.8597
529.863
596.0884
649.256
0.10001 0.519667 0.062334
330.0449
365.0678
477.0713
522.6809
605.3195
654.858
0.10001 0.519667 0.124668
324.336
372.7091
455.7888
507.989
626.2244
666.8997
0.10001 0.519667 0.187002
319.9594
390.9956
424.4088
490.3211
649.1613
677.7076
0.10001 0.519667 0.249336
328.1107
383.4571
420.2909
469.2967
667.921
682.5487
0.10001 0.519667 -0.31167
351.0716
351.0716
445.2096
445.2096
679.4027
679.4027
0.20002 0.346445 0.0
307.9331
351.8369
451.137
571.7733
580.2637
584.6145
0.20002 0.346445 0.062334
301.6423
356.3519
458.857
539.4964
586.5561
606.2342
0.20002 0.346445 0.124668
292.4003
368.124
471.6661
499.5444
593.9835
628.1287
0.20002 0.346445 0.187002
294.0019
380.3068
461.7029
475.6901
608.2187
641.0546
0.20002 0.346445 0.249336
311.7151
373.1741
445.032
468.4388
625.1424
644.4106
0.20002 0.346445 -0.31167
342.1097
342.1097
454.784
454.784
638.5318
638.5318
0.20002 0.461926 0.0
367.1872
403.1123
498.7791
529.9221
580.8827
627.013
0.20002 0.461926 0.062334
354.3459
409.3719
495.7391
520.799
594.6767
629.8739
0.20002 0.461926 0.124668
332.0255
417.5162
470.6974
525.4831
614.2501
639.3225
0.20002 0.461926 0.187002
317.092
402.7475
463.9143
526.1096
631.6509
651.0419
0.20002 0.461926 0.249336
318.1068
368.0477
480.3266
516.5287
646.7275
657.6294
0.20002 0.461926 -0.31167
336.6345
336.6345
499.9696
499.9696
656.1432
656.1432
0.20002 0.577408 0.0
399.7422
417.5783
499.5959
524.6095
576.8518
640.6772
0.20002 0.577408 0.062334
380.8746
430.8083
474.6833
539.8861
586.6573
642.9504
0.20002 0.577408 0.124668
352.9117
436.0899
449.4545
549.9837
608.9443
649.7994
0.20002 0.577408 0.187002
330.8573
396.1522
470.853
546.9902
632.5923
658.4255
0.20002 0.577408 0.249336
323.3304
360.0927
493.8431
534.4718
651.0339
663.5441
0.20002 0.577408 -0.31167
333.8753
333.8753
515.9031
515.9031
661.5193
661.5193
0.30003 0.519667 0.0
419.9148
475.695
480.9263
532.4818
563.4339
630.0038
0.30003 0.519667 0.062334
403.8134
455.9782
486.1199
545.9123
578.1656
628.2519
0.30003 0.519667 0.124668
372.1648
418.7228
498.2641
568.9517
603.7229
624.9744
0.30003 0.519667 0.187002
343.3423
380.0263
516.0186
579.8987
625.1758
627.2902
0.30003 0.519667 0.249336
327.1675
347.8623
536.4801
572.7004
636.3468
638.1868
0.30003 0.519667 -0.31167
328.72
328.72
556.4375
556.4375
641.6221
641.6221
P	=	3600.09	V	=	88.62327	E	=	-655.14197804
0.0 0.0 0.0
-0.0
-0.0
0.0
349.6079
349.6079
711.7453
0.0 0.0 0.062335
53.713
53.713
127.0966
345.0748
345.0748
705.4318
0.0 0.0 0.12467
105.7332
105.7332
248.9903
331.5149
331.5149
686.2099
0.0 0.0 0.187005
154.9091
154.9091
309.2232
309.2232
360.8829
653.2203
0.0 0.0 0.24934
200.642
200.642
279.0466
279.0466
458.891
605.1266
0.0 0.0 -0.311675
242.3657
242.3657
242.3657
242.3657
540.5638
540.5638
0.0 0.115479 0.0
99.9428
105.5181
226.351
367.0041
400.8945
700.242
0.0 0.115479 0.062335
119.1058
127.5262
250.4222
362.8593
396.27
694.6198
0.0 0.115479 0.12467
151.4194
173.1026
315.3529
350.4229
382.5812
677.5273
0.0 0.115479 0.187005
190.6131
216.0375
329.8974
359.902
398.2704
648.2628
0.0 0.115479 0.24934
230.5445
256.8707
302.0601
330.4914
478.8923
605.764
0.0 0.115479 -0.311675
268.3458
268.3458
295.4733
295.4733
549.1694
549.1694
0.0 0.230957 0.0
193.4908
194.6563
405.7114
412.4195
504.9134
667.3472
0.0 0.230957 0.062335
203.1903
204.7383
402.2364
424.1584
498.5559
664.9417
0.0 0.230957 0.12467
225.7478
234.5675
391.7527
453.4282
482.0948
657.1008
0.0 0.230957 0.187005
256.1782
275.2675
374.3034
446.1489
502.4733
642.3187
0.0 0.230957 0.24934
289.2441
320.5044
350.4519
409.2242
546.39
619.0525
0.0 0.230957 -0.311675
321.4757
321.4757
366.1811
366.1811
586.6726
586.6726
0.0 0.346436 0.0
255.817
275.654
443.6828
535.5857
598.2437
618.7102
0.0 0.346436 0.062335
262.8498
278.0306
440.5514
541.1565
577.2155
635.4641
0.0 0.346436 0.12467
281.9786
288.0898
431.132
526.7009
575.2334
651.8766
0.0 0.346436 0.187005
308.7311
310.2702
415.4833
484.639
600.4379
659.6512
0.0 0.346436 0.24934
338.5282
345.0424
394.033
437.0364
626.1905
657.7423
0.0 0.346436 -0.311675
367.8066
367.8066
388.9369
388.9369
646.208
646.208
0.0 0.461915 0.0
287.4848
341.1357
468.7723
566.6674
599.7329
653.8398
0.0 0.461915 0.062335
293.8947
337.9003
465.6286
550.4419
610.1187
662.2605
0.0 0.461915 0.12467
311.6456
333.3703
456.2696
516.2184
631.7336
677.7095
0.0 0.461915 0.187005
337.0849
337.325
440.9193
474.4705
655.7368
689.6118
0.0 0.461915 0.24934
355.8607
365.9392
420.0271
430.1371
676.0664
693.8683
0.0 0.461915 -0.311675
388.5092
388.5092
394.4825
394.4825
689.2769
689.2769
0.0 -0.577394 0.0
296.5124
371.2182
477.3215
539.5383
618.996
670.8941
0.0 -0.577394 0.062335
302.7352
365.3327
474.115
528.4967
627.8623
677.1507
0.0 -0.577394 0.12467
320.1014
354.1699
464.6176
500.54
648.9358
690.1805
0.0 -0.577394 0.187005
345.257
349.7894
449.1462
463.4327
672.4407
701.5567
0.0 -0.577394 0.24934
360.2854
374.0285
423.2493
428.1867
691.642
706.5754
0.0 -0.577394 -0.311675
386.475
386.475
402.5979
402.5979
703.3645
703.3645
0.100008 0.173218 0.0
169.5171
189.7608
343.5548
419.3039
467.9421
677.9961
0.100008 0.173218 0.062335
182.0471
198.2025
355.6705
419.008
462.3062
674.2216
0.100008 0.173218 0.12467
213.5342
220.4703
375.2872
429.3238
445.8009
662.5972
0.100008 0.173218 0.187005
250.3302
253.5638
370.4659
419.7377
470.6775
642.2811
0.100008 0.173218 0.24934
282.0331
293.6525
352.6903
386.6262
523.1078
612.232
0.100008 0.173218 -0.311675
307.8341
307.8341
353.061
353.061
572.0261
572.0261
0.100008 0.288697 0.0
248.9502
269.1833
419.8233
513.997
554.7091
636.8406
0.100008 0.288697 0.062335
249.8781
277.0549
423.3734
516.4055
545.3045
640.5656
0.100008 0.288697 0.12467
259.0504
296.1847
426.4927
506.2542
542.6071
645.9346
0.100008 0.288697 0.187005
281.582
321.1086
419.9233
471.3291
566.2718
645.9153
0.100008 0.288697 0.24934
314.5124
345.2298
405.0884
432.4823
594.9998
637.4935
0.100008 0.288697 -0.311675
345.9788
345.9788
403.3219
403.3219
620.0699
620.0699
0.100008 0.404176 0.0
316.4949
320.476
468.5145
577.3626
584.7993
627.0661
0.100008 0.404176 0.062335
308.6542
330.6565
467.9915
556.5917
593.703
639.5652
0.100008 0.404176 0.12467
302.6829
348.1407
461.7271
522.7221
610.7026
657.8789
0.100008 0.404176 0.187005
307.4466
370.009
443.3126
489.4829
632.5443
670.041
0.100008 0.404176 0.24934
326.9506
382.9054
422.912
461.6862
652.981
673.3614
0.100008 0.404176 -0.311675
357.7821
357.7821
436.838
436.838
667.3883
667.3883
0.100008 0.519654 0.0
336.5629
372.1161
492.6696
539.5527
607.1405
661.8048
0.100008 0.519654 0.062335
335.9308
371.5466
485.7163
532.3071
616.5919
667.5192
0.100008 0.519654 0.12467
330.0984
379.4837
464.0167
517.4396
637.993
679.8241
0.100008 0.519654 0.187005
325.7763
398.1117
432.1328
499.4451
661.4866
690.8729
0.100008 0.519654 0.24934
334.1735
390.485
427.9844
477.9793
680.7237
695.796
0.100008 0.519654 -0.311675
357.5657
357.5657
453.3916
453.3916
692.5258
692.5258
0.200015 0.346436 0.0
313.3293
358.1118
459.1315
582.1667
591.1574
596.1768
0.200015 0.346436 0.062335
306.9751
362.6957
466.9886
549.3246
598.165
617.6465
0.200015 0.346436 0.12467
297.6666
374.6493
480.0485
508.6186
605.735
640.1334
0.200015 0.346436 0.187005
299.3593
387.0081
470.1361
484.2094
620.1951
653.4405
0.200015 0.346436 0.24934
317.3733
379.762
453.1862
476.9008
637.378
656.9324
0.200015 0.346436 -0.311675
348.24
348.24
463.057
463.057
650.9789
650.9789
0.200015 0.461915 0.0
373.5678
410.3546
507.6297
539.5737
591.5097
639.2448
0.200015 0.461915 0.062335
360.5257
416.7106
504.5633
530.2406
605.7199
642.101
0.200015 0.461915 0.12467
337.8987
424.9323
479.2138
535.0141
625.9054
651.6084
0.200015 0.461915 0.187005
322.842
409.9113
472.4168
535.7332
643.7516
663.5338
0.200015 0.461915 0.24934
323.9926
374.7428
489.1438
526.028
659.1603
670.2832
0.200015 0.461915 -0.311675
342.8655
342.8655
509.1696
509.1696
668.7791
668.7791
0.200015 0.577394 0.0
406.679
425.1072
508.5567
533.9685
587.3883
653.1041
0.200015 0.577394 0.062335
387.4895
438.5868
483.1013
549.6885
597.4023
655.3829
0.200015 0.577394 0.12467
359.0933
443.8254
457.6088
560.1343
620.1952
662.2991
0.200015 0.577394 0.187005
336.8172
403.2898
479.4426
557.1666
644.4295
671.0701
0.200015 0.577394 0.24934
329.3419
366.7434
502.9276
544.4241
663.3713
676.2817
0.200015 0.577394 -0.311675
340.1439
340.1439
525.4691
525.4691
674.1692
674.1692
0.300023 0.519654 0.0
427.2217
484.3632
489.4542
541.9029
573.4907
642.2903
0.300023 0.519654 0.062335
410.8232
463.9934
494.998
555.6463
588.5779
640.4684
0.300023 0.519654 0.12467
378.6677
426.0664
507.3808
579.269
614.7735
637.0241
0.300023 0.519654 0.187005
349.5143
386.831
525.5005
590.6545
636.8043
639.2209
0.300023 0.519654 0.24934
333.2768
354.3117
546.4306
583.4387
648.3936
650.202
0.300023 0.519654 -0.311675
334.9484
334.9484
566.8478
566.8478
653.7679
653.7679
P	=	3800.04	V	=	87.4723	E	=	-655.11303162
0.0 0.0 0.0
-0.0
-0.0
0.0
355.6813
355.6813
725.4575
0.0 0.0 0.062337
54.618
54.618
129.3943
351.0642
351.0642
718.965
0.0 0.0 0.124674
107.5177
107.5177
253.5257
337.2546
337.2546
699.2397
0.0 0.0 0.18701
157.5312
157.5312
314.5565
314.5565
367.5119
665.488
0.0 0.0 0.249347
204.0521
204.0521
283.8366
283.8366
467.373
616.4042
0.0 0.0 -0.311684
246.505
246.505
246.505
246.505
550.5948
550.5948
0.0 0.115476 0.0
101.7199
107.2804
230.5058
373.3703
407.7801
713.6573
0.0 0.115476 0.062337
121.0962
129.6029
255.0864
369.1414
403.0716
707.8708
0.0 0.115476 0.124674
153.9581
175.8622
321.25
356.4605
389.1308
690.3285
0.0 0.115476 0.18701
193.8255
219.5532
335.5497
366.011
405.7121
660.4091
0.0 0.115476 0.249347
234.4482
261.1046
307.2116
336.046
487.845
617.0788
0.0 0.115476 -0.311684
272.9062
272.9062
300.3881
300.3881
559.4332
559.4332
0.0 0.230952 0.0
196.84
197.9703
412.753
419.9583
513.6096
679.9066
0.0 0.230952 0.062337
206.6336
208.1856
409.1969
431.9269
507.1426
677.4148
0.0 0.230952 0.124674
229.5499
238.4161
398.4846
461.6147
490.5134
669.3619
0.0 0.230952 0.18701
260.4926
279.8023
380.6911
453.6109
511.856
654.2983
0.0 0.230952 0.249347
294.1328
325.8081
356.4072
416.0035
556.6329
630.6462
0.0 0.230952 -0.311684
326.9255
326.9255
372.2314
372.2314
597.6917
597.6917
0.0 0.346428 0.0
260.2674
280.266
451.4448
545.2471
608.8745
630.0063
0.0 0.346428 0.062337
267.3901
282.6714
448.2367
550.7851
587.5924
647.0517
0.0 0.346428 0.124674
286.7884
292.9184
438.6024
535.6894
585.8642
663.8381
0.0 0.346428 0.18701
313.9661
315.5518
422.6325
492.8472
611.5335
671.8445
0.0 0.346428 0.249347
344.2774
350.9713
400.7786
444.445
637.8055
669.9685
0.0 0.346428 -0.311684
374.078
374.078
395.5876
395.5876
658.2331
658.2331
0.0 0.461904 0.0
292.5711
346.7009
477.0678
576.6541
610.4661
665.8087
0.0 0.461904 0.062337
299.0536
343.4704
473.8482
560.0655
621.0895
674.4039
0.0 0.461904 0.124674
317.033
339.0101
464.2746
525.1681
643.1478
690.201
0.0 0.461904 0.18701
342.8567
343.2007
448.599
482.6912
667.6764
702.397
0.0 0.461904 0.249347
362.1654
372.2026
427.2938
437.6549
688.502
706.7697
0.0 0.461904 -0.311684
395.38
395.38
401.266
401.266
702.0589
702.0589
0.0 -0.57738 0.0
301.7927
377.2294
485.8145
548.8772
630.065
683.3057
0.0 -0.57738 0.062337
308.0838
371.3317
482.5314
537.651
639.0782
689.6896
0.0 -0.57738 0.124674
325.6681
360.1776
472.8163
509.2324
660.5532
703.0016
0.0 -0.57738 0.18701
351.1972
355.9293
457.0124
471.5385
684.5965
714.6372
0.0 -0.57738 0.249347
366.7407
380.4554
430.7461
435.6298
704.3192
719.7555
0.0 -0.57738 -0.311684
393.4029
393.4029
409.5483
409.5483
716.4097
716.4097
0.100005 0.173214 0.0
172.4789
192.9363
349.7098
426.7835
475.9279
690.8334
0.100005 0.173214 0.062337
185.1039
201.5166
362.0142
426.5325
470.1876
686.9398
0.100005 0.173214 0.124674
216.9978
224.1577
381.7646
437.2733
453.3638
675.0093
0.100005 0.173214 0.18701
254.5301
257.6944
376.7541
426.7862
479.5024
654.2788
0.100005 0.173214 0.249347
286.7791
298.4748
358.6494
393.0454
532.944
623.7031
0.100005 0.173214 -0.311684
312.9925
312.9925
358.9169
358.9169
582.7843
582.7843
0.100005 0.28869 0.0
253.1775
273.7497
427.0383
523.3931
564.4217
648.6068
0.100005 0.28869 0.062337
254.0753
281.738
430.6261
525.7307
554.9609
652.3839
0.100005 0.28869 0.124674
263.3547
301.1653
433.7569
514.8683
552.703
657.8604
0.100005 0.28869 0.18701
286.2842
326.505
427.0559
479.2527
576.8289
657.9013
0.100005 0.28869 0.249347
319.7826
351.0262
411.9678
439.7654
606.1103
649.3926
0.100005 0.28869 -0.311684
351.7529
351.7529
410.1825
410.1825
631.6695
631.6695
0.100005 0.404166 0.0
321.9626
325.7688
476.6107
587.7205
595.2383
638.4854
0.100005 0.404166 0.062337
313.8388
336.2743
476.0654
566.2958
604.5848
651.1979
0.100005 0.404166 0.124674
307.7832
354.0689
469.6551
531.7483
621.9211
669.9166
0.100005 0.404166 0.18701
312.7086
376.3035
450.8815
497.9529
644.1788
682.3973
0.100005 0.404166 0.249347
332.5992
389.3981
430.2038
469.7002
665.0459
685.8457
0.100005 0.404166 -0.311684
363.9194
363.9194
444.4118
444.4118
679.7679
679.7679
0.100005 0.519642 0.0
342.4509
378.1783
501.2974
548.8987
617.9661
674.0452
0.100005 0.519642 0.062337
341.7055
377.7515
494.1518
541.5938
627.5925
679.855
0.100005 0.519642 0.124674
335.706
386.0111
471.9712
526.5712
649.4158
692.3984
0.100005 0.519642 0.18701
331.4223
404.989
439.5536
508.2804
673.4403
703.6898
0.100005 0.519642 0.249347
340.0631
397.2492
435.4386
486.402
693.1792
708.7167
0.100005 0.519642 -0.311684
363.8543
363.8543
461.3329
461.3329
705.3278
705.3278
0.20001 0.346428 0.0
318.5453
364.1974
466.9137
592.2505
601.7596
607.4181
0.20001 0.346428 0.062337
312.0918
368.8375
474.8962
558.8346
609.4225
628.7258
0.20001 0.346428 0.124674
302.6637
380.9468
488.1855
517.328
617.0767
651.7633
0.20001 0.346428 0.18701
304.4565
393.4626
478.191
492.4635
631.746
665.4494
0.20001 0.346428 0.249347
322.8181
386.0995
461.0114
485.0808
649.2299
669.1043
0.20001 0.346428 -0.311684
354.1567
354.1567
471.0336
471.0336
663.0814
663.0814
0.20001 0.461904 0.0
379.712
417.4251
516.2757
548.9311
601.9136
651.1891
0.20001 0.461904 0.062337
366.5067
423.8534
513.144
539.4177
616.5046
654.0218
0.20001 0.461904 0.124674
343.6101
432.1178
487.4517
544.2855
637.2413
663.5664
0.20001 0.461904 0.18701
328.4309
416.8119
480.6346
545.0788
655.4948
675.6975
0.20001 0.461904 0.249347
329.6892
381.1796
497.6648
535.2311
671.2428
682.6124
0.20001 0.461904 -0.311684
348.8687
348.8687
518.0675
518.0675
681.0834
681.0834
0.20001 0.57738 0.0
413.3596
432.4877
517.22
543.1297
597.7407
665.2571
0.20001 0.57738 0.062337
393.9291
446.1764
491.2582
559.2689
607.9224
667.5251
0.20001 0.57738 0.124674
365.1689
451.3188
465.5492
570.0495
631.1573
674.4847
0.20001 0.57738 0.18701
342.671
410.1863
487.7834
567.0764
655.9432
683.3935
0.20001 0.57738 0.249347
335.1828
373.1447
511.7311
554.0829
675.3772
688.6965
0.20001 0.57738 -0.311684
346.1801
346.1801
534.7369
534.7369
686.4913
686.4913
0.300015 0.519642 0.0
434.2874
492.8698
497.7181
551.1332
583.3625
654.3136
0.300015 0.519642 0.062337
417.6618
471.8043
503.6953
565.1587
598.7777
652.4062
0.300015 0.519642 0.124674
385.0851
433.2539
516.2914
589.3318
625.5866
648.7619
0.300015 0.519642 0.18701
355.5904
393.4732
534.73
601.1162
648.166
650.8226
0.300015 0.519642 0.249347
339.1966
360.5377
556.0849
593.8508
660.1061
661.9117
0.300015 0.519642 -0.311684
340.9232
340.9232
576.9337
576.9337
665.582
665.582
P	=	4000.01	V	=	86.38092	E	=	-655.08409898
0.0 0.0 0.0
-0.0
-0.0
-0.0
361.6198
361.6198
738.7997
0.0 0.0 0.062339
55.6173
55.6173
131.7666
356.9395
356.9395
732.1397
0.0 0.0 0.124678
109.4243
109.4243
258.1066
342.922
342.922
711.9223
0.0 0.0 0.187017
160.2271
160.2271
319.8428
319.8428
374.0388
677.3853
0.0 0.0 0.249356
207.4617
207.4617
288.5788
288.5788
475.5706
627.2712
0.0 0.0 -0.311695
250.6001
250.6001
250.6001
250.6001
560.2272
560.2272
0.0 0.115473 0.0
103.4776
109.0083
234.746
379.5918
414.5602
726.7117
0.0 0.115473 0.062339
123.1049
131.8351
259.7612
375.3015
409.7582
720.7889
0.0 0.115473 0.124678
156.5711
178.7506
327.1127
362.4214
395.5478
702.8389
0.0 0.115473 0.187017
197.0896
223.0325
341.1516
371.9789
413.0382
672.2543
0.0 0.115473 0.249356
238.3404
265.2157
312.3099
341.4592
496.5318
628.0386
0.0 0.115473 -0.311695
277.4147
277.4147
305.1624
305.1624
569.3327
569.3327
0.0 0.230946 0.0
200.1903
201.2681
419.6023
427.5818
522.1734
692.1289
0.0 0.230946 0.062339
210.0947
211.7684
415.9846
439.694
515.5517
689.6079
0.0 0.230946 0.124678
233.4136
242.4478
405.0826
469.6581
498.6999
681.4261
0.0 0.230946 0.187017
264.8496
284.3007
386.9693
460.7959
521.0482
666.0729
0.0 0.230946 0.249356
298.9959
330.8713
362.2591
422.4976
566.6246
641.9624
0.0 0.230946 -0.311695
332.292
332.292
377.9874
377.9874
608.4071
608.4071
0.0 0.346419 0.0
264.7882
284.9224
458.9179
554.8103
619.2792
641.0012
0.0 0.346419 0.062339
272.0093
287.4434
455.6431
560.2375
597.7502
658.3817
0.0 0.346419 0.124678
291.676
297.9278
445.8169
544.4121
596.3013
675.5527
0.0 0.346419 0.187017
319.2316
320.8311
429.5512
500.7882
622.3821
683.7574
0.0 0.346419 0.249356
349.9712
356.6503
407.3265
451.5363
649.129
681.8719
0.0 0.346419 -0.311695
380.2089
380.2089
401.8858
401.8858
669.9314
669.9314
0.0 0.461891 0.0
297.8391
352.3283
484.9687
586.3879
620.8235
677.4622
0.0 0.461891 0.062339
304.3651
349.1314
481.6773
569.4589
631.7107
686.229
0.0 0.461891 0.124678
322.4988
344.7364
471.9057
533.9348
654.2327
702.3737
0.0 0.461891 0.187017
348.6131
349.0163
455.9409
490.7111
679.2799
714.8439
0.0 0.461891 0.249356
368.2052
378.3551
434.2818
444.8808
700.5703
719.2972
0.0 0.461891 -0.311695
401.8981
401.8981
407.8489
407.8489
714.4519
714.4519
0.0 -0.577364 0.0
307.3071
383.2974
493.8664
557.9924
640.6294
695.3595
0.0 -0.577364 0.062339
313.6178
377.383
490.5097
546.6139
649.825
701.8893
0.0 -0.577364 0.124678
331.3071
366.1916
480.5939
517.7816
671.7601
715.51
0.0 -0.577364 0.187017
357.0919
361.9395
464.5012
479.4796
696.3592
727.3914
0.0 -0.577364 0.249356
372.9012
386.74
437.9754
442.7649
716.5837
732.5576
0.0 -0.577364 -0.311695
399.9816
399.9816
416.272
416.272
729.0377
729.0377
0.100002 0.173209 0.0
175.432
196.0725
355.927
434.1444
483.7938
703.3256
0.100002 0.173209 0.062339
188.3045
204.8188
368.3514
433.9386
477.9119
699.3624
0.100002 0.173209 0.124678
220.6523
227.8673
388.1747
445.0906
460.7042
687.2024
0.100002 0.173209 0.187017
258.7336
261.8162
382.9448
433.5852
488.1652
666.0544
0.100002 0.173209 0.249356
291.4736
303.1485
364.462
399.2197
542.5358
634.8834
0.100002 0.173209 -0.311695
318.057
318.057
364.5319
364.5319
593.2283
593.2283
0.100002 0.288682 0.0
257.4322
278.3015
434.14
532.6811
573.9321
660.0546
0.100002 0.288682 0.062339
258.4093
286.4223
437.744
534.8886
564.4037
663.9383
0.100002 0.288682 0.124678
267.8661
306.1615
440.8626
523.1938
562.6185
669.5712
0.100002 0.288682 0.187017
291.034
331.8699
433.9998
486.8821
587.179
669.6415
0.100002 0.288682 0.249356
324.9036
356.701
418.6171
446.7474
616.9694
660.9923
0.100002 0.288682 -0.311695
357.3342
357.3342
416.7612
416.7612
642.9682
642.9682
0.100002 0.404155 0.0
327.4847
331.1133
484.4101
597.7734
605.3992
649.6166
0.100002 0.404155 0.062339
319.1199
341.947
483.8406
575.715
615.2148
662.5194
0.100002 0.404155 0.124678
313.0133
360.0237
477.2852
540.5291
632.8908
681.628
0.100002 0.404155 0.187017
317.9895
382.5458
458.1643
506.1561
655.5481
694.4055
0.100002 0.404155 0.249356
338.0798
395.7117
437.221
477.4106
676.8021
697.9619
0.100002 0.404155 -0.311695
369.7972
369.7972
451.6996
451.6996
691.7923
691.7923
0.100002 0.519628 0.0
348.4528
384.2805
509.5011
558.0128
628.3153
685.9143
0.100002 0.519628 0.062339
347.5693
383.9923
502.1977
550.6341
638.1557
691.8415
0.100002 0.519628 0.124678
341.3499
392.526
479.6215
535.4139
660.4597
704.6521
0.100002 0.519628 0.187017
337.0009
411.7601
446.7193
516.7871
685.0283
716.1741
0.100002 0.519628 0.249356
345.7486
403.7653
442.6587
494.4884
705.2424
721.2598
0.100002 0.519628 -0.311695
369.8683
369.8683
468.9725
468.9725
717.7233
717.7233
0.200005 0.346419 0.0
323.8036
370.2096
474.5621
601.9342
612.0709
618.4368
0.200005 0.346419 0.062339
317.3098
374.9152
482.6547
568.0151
620.4613
639.46
0.200005 0.346419 0.124678
307.8132
387.1842
496.1306
525.7414
628.2155
663.0342
0.200005 0.346419 0.187017
309.6022
399.8133
485.9578
500.459
643.0982
677.0794
0.200005 0.346419 0.249356
328.1186
392.2227
468.555
492.9563
660.8319
680.8968
0.200005 0.346419 -0.311695
359.8188
359.8188
478.7097
478.7097
674.8535
674.8535
0.200005 0.461891 0.0
385.8694
424.3898
524.6276
558.0435
611.8294
662.7524
0.200005 0.461891 0.062339
372.4961
430.8961
521.4464
548.3191
626.8526
665.5902
0.200005 0.461891 0.124678
349.3235
439.1899
495.4223
553.2586
648.2246
675.1902
0.200005 0.461891 0.187017
333.9697
423.5101
488.616
554.0868
666.9443
687.4911
0.200005 0.461891 0.249356
335.2288
387.36
505.904
544.0771
683.0004
694.5433
0.200005 0.461891 -0.311695
354.627
354.627
526.6268
526.6268
693.0066
693.0066
0.200005 0.577364 0.0
420.0172
439.761
525.6755
551.8537
607.6194
676.9642
0.200005 0.577364 0.062339
400.3141
453.6577
499.161
568.4551
618.0212
679.2686
0.200005 0.577364 0.124678
371.1554
458.5652
473.3495
579.5679
641.7664
686.3429
0.200005 0.577364 0.187017
348.3931
416.8416
495.923
576.5985
667.1062
695.3903
0.200005 0.577364 0.249356
340.8348
379.3003
520.2502
563.3658
686.9924
700.7345
0.200005 0.577364 -0.311695
351.9816
351.9816
543.6559
543.6559
698.404
698.404
0.300007 0.519628 0.0
441.2815
501.0591
505.7988
560.0398
592.7668
665.85
0.300007 0.519628 0.062339
424.3805
479.3863
512.0944
574.3856
608.5629
663.9078
0.300007 0.519628 0.124678
391.3396
440.1909
524.9261
599.1102
636.0155
660.1719
0.300007 0.519628 0.187017
361.4943
399.861
543.6729
611.2411
659.1277
662.1505
0.300007 0.519628 0.249356
344.9326
366.5236
565.4012
603.9
671.4799
673.1998
0.300007 0.519628 -0.311695
346.6862
346.6862
586.6482
586.6482
676.9901
676.9901

weight
   0.0000000   0.0000000   0.0000000   0.0020000   
   0.0000000   0.0000000   0.1000000   0.0040000   
   0.0000000   0.0000000   0.2000000   0.0040000   
   0.0000000   0.0000000   0.3000000   0.0040000   
   0.0000000   0.0000000   0.4000000   0.0040000   
   0.0000000   0.0000000  -0.5000000   0.0020000   
   0.0000000   0.1000000   0.0000000   0.0120000   
   0.0000000   0.1000000   0.1000000   0.0240000   
   0.0000000   0.1000000   0.2000000   0.0240000   
   0.0000000   0.1000000   0.3000000   0.0240000   
   0.0000000   0.1000000   0.4000000   0.0240000   
   0.0000000   0.1000000  -0.5000000   0.0120000   
   0.0000000   0.2000000   0.0000000   0.0120000   
   0.0000000   0.2000000   0.1000000   0.0240000   
   0.0000000   0.2000000   0.2000000   0.0240000   
   0.0000000   0.2000000   0.3000000   0.0240000   
   0.0000000   0.2000000   0.4000000   0.0240000   
   0.0000000   0.2000000  -0.5000000   0.0120000   
   0.0000000   0.3000000   0.0000000   0.0120000   
   0.0000000   0.3000000   0.1000000   0.0240000   
   0.0000000   0.3000000   0.2000000   0.0240000   
   0.0000000   0.3000000   0.3000000   0.0240000   
   0.0000000   0.3000000   0.4000000   0.0240000   
   0.0000000   0.3000000  -0.5000000   0.0120000   
   0.0000000   0.4000000   0.0000000   0.0120000   
   0.0000000   0.4000000   0.1000000   0.0240000   
   0.0000000   0.4000000   0.2000000   0.0240000   
   0.0000000   0.4000000   0.3000000   0.0240000   
   0.0000000   0.4000000   0.4000000   0.0240000   
   0.0000000   0.4000000  -0.5000000   0.0120000   
   0.0000000  -0.5000000   0.0000000   0.0060000   
   0.0000000  -0.5000000   0.1000000   0.0120000   
   0.0000000  -0.5000000   0.2000000   0.0120000   
   0.0000000  -0.5000000   0.3000000   0.0120000   
   0.0000000  -0.5000000   0.4000000   0.0120000   
   0.0000000  -0.5000000  -0.5000000   0.0060000   
   0.1000000   0.1000000   0.0000000   0.0120000   
   0.1000000   0.1000000   0.1000000   0.0240000   
   0.1000000   0.1000000   0.2000000   0.0240000   
   0.1000000   0.1000000   0.3000000   0.0240000   
   0.1000000   0.1000000   0.4000000   0.0240000   
   0.1000000   0.1000000  -0.5000000   0.0120000   
   0.1000000   0.2000000   0.0000000   0.0240000   
   0.1000000   0.2000000   0.1000000   0.0480000   
   0.1000000   0.2000000   0.2000000   0.0480000   
   0.1000000   0.2000000   0.3000000   0.0480000   
   0.1000000   0.2000000   0.4000000   0.0480000   
   0.1000000   0.2000000  -0.5000000   0.0240000   
   0.1000000   0.3000000   0.0000000   0.0240000   
   0.1000000   0.3000000   0.1000000   0.0480000   
   0.1000000   0.3000000   0.2000000   0.0480000   
   0.1000000   0.3000000   0.3000000   0.0480000   
   0.1000000   0.3000000   0.4000000   0.0480000   
   0.1000000   0.3000000  -0.5000000   0.0240000   
   0.1000000   0.4000000   0.0000000   0.0240000   
   0.1000000   0.4000000   0.1000000   0.0480000   
   0.1000000   0.4000000   0.2000000   0.0480000   
   0.1000000   0.4000000   0.3000000   0.0480000   
   0.1000000   0.4000000   0.4000000   0.0480000   
   0.1000000   0.4000000  -0.5000000   0.0240000   
   0.2000000   0.2000000   0.0000000   0.0120000   
   0.2000000   0.2000000   0.1000000   0.0240000   
   0.2000000   0.2000000   0.2000000   0.0240000   
   0.2000000   0.2000000   0.3000000   0.0240000   
   0.2000000   0.2000000   0.4000000   0.0240000   
   0.2000000   0.2000000  -0.5000000   0.0120000   
   0.2000000   0.3000000   0.0000000   0.0240000   
   0.2000000   0.3000000   0.1000000   0.0480000   
   0.2000000   0.3000000   0.2000000   0.0480000   
   0.2000000   0.3000000   0.3000000   0.0480000   
   0.2000000   0.3000000   0.4000000   0.0480000   
   0.2000000   0.3000000  -0.5000000   0.0240000   
   0.2000000   0.4000000   0.0000000   0.0120000   
   0.2000000   0.4000000   0.1000000   0.0240000   
   0.2000000   0.4000000   0.2000000   0.0240000   
   0.2000000   0.4000000   0.3000000   0.0240000   
   0.2000000   0.4000000   0.4000000   0.0240000   
   0.2000000   0.4000000  -0.5000000   0.0120000   
   0.3000000   0.3000000   0.0000000   0.0120000   
   0.3000000   0.3000000   0.1000000   0.0240000   
   0.3000000   0.3000000   0.2000000   0.0240000   
   0.3000000   0.3000000   0.3000000   0.0240000   
   0.3000000   0.3000000   0.4000000   0.0240000   
   0.3000000   0.3000000  -0.5000000   0.0120000   