Number of volumes (nv), q-vectors (nq), normal mode (np), formula units(nm)
23 84 6 1

P	=	-0.28	V	=	148.11656	E	=	-655.56440293
0.0 0.0 0.0
-0.0
-0.0
0.0
160.3071
160.3071
281.1348
0.0 0.0 0.062216
24.1074
24.1074
54.1829
158.1885
158.1885
279.7073
0.0 0.0 0.124432
47.7758
47.7758
105.3991
151.9164
151.9164
274.6946
0.0 0.0 0.186648
70.5332
70.5332
141.7316
141.7316
151.3713
264.4405
0.0 0.0 0.248864
91.8607
91.8607
128.005
128.005
190.7523
247.4191
0.0 0.0 -0.31108
111.2045
111.2045
111.2045
111.2045
222.8747
222.8747
0.0 0.115613 0.0
44.6385
48.7758
94.7499
167.5845
180.7252
277.6279
0.0 0.115613 0.062216
54.7313
58.8746
103.9111
165.7077
178.7953
276.2461
0.0 0.115613 0.124432
69.2368
80.7334
130.3805
160.1243
173.0463
271.5289
0.0 0.115613 0.186648
87.2775
100.0468
150.9817
163.6341
164.6295
262.1697
0.0 0.115613 0.248864
105.8463
118.3323
138.553
150.9363
197.4663
246.9527
0.0 0.115613 -0.31108
123.2814
123.2814
135.5601
135.5601
225.3133
225.3133
0.0 0.231225 0.0
87.4282
88.9751
171.5327
182.9677
219.988
267.6793
0.0 0.231225 0.062216
92.8624
92.9496
176.3261
181.533
217.6374
267.0127
0.0 0.231225 0.124432
103.2398
107.1677
177.2081
189.0691
210.6877
264.6359
0.0 0.231225 0.186648
117.3646
125.9046
169.9661
199.0914
206.366
259.6876
0.0 0.231225 0.248864
132.6444
146.1446
159.8703
184.0965
223.7699
251.3492
0.0 0.231225 -0.31108
147.2091
147.2091
166.0119
166.0119
239.256
239.256
0.0 0.346838 0.0
115.0552
125.6375
196.4062
220.9336
250.2346
253.1198
0.0 0.346838 0.062216
118.5009
126.1957
195.2852
224.4865
240.6894
259.9911
0.0 0.346838 0.124432
127.7541
129.6525
191.8554
225.93
234.5822
265.2928
0.0 0.346838 0.186648
138.6145
140.3809
185.9705
209.8734
245.0372
267.575
0.0 0.346838 0.248864
153.2763
153.9516
177.5398
191.2261
254.9257
266.6169
0.0 0.346838 -0.31108
166.6945
166.6945
171.6606
171.6606
262.3423
262.3423
0.0 0.46245 0.0
127.2162
155.3023
203.8575
237.5146
245.1986
263.6493
0.0 0.46245 0.062216
130.5693
152.8136
202.8801
231.6591
248.8189
266.8302
0.0 0.46245 0.124432
139.5431
148.4906
199.8469
218.7731
256.8122
272.1793
0.0 0.46245 0.186648
147.9618
151.7027
194.5353
202.5131
265.3647
276.1041
0.0 0.46245 0.248864
154.507
164.645
184.7242
186.7833
272.1542
277.5701
0.0 0.46245 -0.31108
167.696
167.696
176.668
176.668
276.281
276.281
0.0 -0.578063 0.0
130.2577
168.2025
206.0316
229.2424
252.1247
266.2673
0.0 -0.578063 0.062216
133.5965
164.4285
205.092
224.4709
255.6544
268.7994
0.0 -0.578063 0.124432
142.5234
156.893
202.1544
212.7584
263.4544
273.7309
0.0 -0.578063 0.186648
152.2702
154.5993
196.9613
197.3637
271.3081
277.9474
0.0 -0.578063 0.248864
154.9273
167.4297
180.5996
189.3284
277.0109
280.1727
0.0 -0.578063 -0.31108
165.2784
165.2784
179.3319
179.3319
279.9443
279.9443
0.100123 0.173419 0.0
76.3824
87.0342
146.8433
184.5494
206.7536
270.8919
0.100123 0.173419 0.062216
82.9778
90.8264
152.5763
183.3631
204.6694
269.8459
0.100123 0.173419 0.124432
98.65
100.9627
166.4552
181.1689
198.4643
266.342
0.100123 0.173419 0.186648
114.7745
117.4685
168.7395
188.3445
193.094
259.5358
0.100123 0.173419 0.248864
129.5849
135.8285
160.5365
174.8955
214.1087
248.6306
0.100123 0.173419 -0.31108
141.985
141.985
160.3749
160.3749
233.3183
233.3183
0.100123 0.289031 0.0
113.3724
122.2708
186.9937
212.7357
236.5333
258.5674
0.100123 0.289031 0.062216
113.9194
125.8838
189.3727
213.8259
232.2116
260.0696
0.100123 0.289031 0.124432
118.3271
134.7486
191.8025
217.9528
222.9996
262.0322
0.100123 0.289031 0.186648
128.7633
146.316
188.8442
206.6913
230.7412
261.8857
0.100123 0.289031 0.248864
143.8347
157.7662
181.5208
191.3173
242.3321
258.6524
0.100123 0.289031 -0.31108
158.5939
158.5939
179.3602
179.3602
252.0446
252.0446
0.100123 0.404644 0.0
141.4019
146.4053
206.7139
236.3682
243.0762
256.6428
0.100123 0.404644 0.062216
140.1606
148.4421
206.6367
234.2988
240.915
261.3143
0.100123 0.404644 0.124432
137.4635
155.7738
203.9693
222.6535
247.5067
267.2898
0.100123 0.404644 0.186648
138.7502
165.9117
195.2642
210.9587
256.2936
270.8824
0.100123 0.404644 0.248864
146.7587
172.6323
184.7024
201.1721
263.9806
271.5402
0.100123 0.404644 -0.31108
160.3187
160.3187
191.3956
191.3956
269.2041
269.2041
0.100123 0.520256 0.0
148.3703
168.9691
213.7298
229.4099
248.3749
264.1248
0.100123 0.520256 0.062216
149.825
166.527
211.4797
225.9897
252.0255
266.6477
0.100123 0.520256 0.124432
149.399
166.7526
203.1095
219.8451
259.9423
271.5446
0.100123 0.520256 0.186648
146.1447
174.7984
189.2222
213.4514
267.9076
275.5949
0.100123 0.520256 0.248864
148.1731
172.1732
186.2042
205.7447
273.7642
277.5099
0.100123 0.520256 -0.31108
157.6351
157.6351
196.4573
196.4573
276.9462
276.9462
0.200247 0.346838 0.0
143.4488
160.7854
203.6917
239.3433
245.0705
245.5195
0.200247 0.346838 0.062216
140.4032
163.2204
207.4817
232.6097
240.0253
255.2012
0.200247 0.346838 0.124432
135.8796
169.4818
213.3326
217.6222
243.1564
262.0273
0.200247 0.346838 0.186648
136.2135
176.2635
202.2194
214.1802
249.764
265.5688
0.200247 0.346838 0.248864
143.8442
172.6565
196.6709
209.9057
257.2322
265.808
0.200247 0.346838 -0.31108
157.5224
157.5224
202.9613
202.9613
262.9121
262.9121
0.200247 0.46245 0.0
170.2056
180.4374
222.1455
229.6783
244.8945
256.4867
0.200247 0.46245 0.062216
164.2901
183.7083
219.5088
227.853
248.5736
259.0271
0.200247 0.46245 0.124432
153.9341
189.2606
206.6261
231.0088
254.0702
264.5493
0.200247 0.46245 0.186648
146.231
183.9091
202.9668
230.0932
260.6436
268.9217
0.200247 0.46245 0.248864
145.4174
167.4498
210.4132
225.3247
266.2747
270.6397
0.200247 0.46245 -0.31108
153.0992
153.0992
218.3761
218.3761
269.6925
269.6925
0.200247 0.578063 0.0
183.7889
185.0236
220.0847
231.2198
243.8664
260.9795
0.200247 0.578063 0.062216
175.451
190.5775
211.525
235.2713
248.0366
262.6129
0.200247 0.578063 0.124432
163.2915
196.4913
197.7511
237.2357
256.5742
266.6181
0.200247 0.578063 0.186648
152.3521
179.4807
206.1615
234.9499
264.4078
270.4911
0.200247 0.578063 0.248864
147.298
163.0652
214.6977
229.7252
269.635
272.4741
0.200247 0.578063 -0.31108
151.0981
151.0981
222.7109
222.7109
272.2132
272.2132
0.30037 0.520256 0.0
192.1055
206.3481
214.0744
233.9166
243.961
257.2655
0.30037 0.520256 0.062216
185.3473
204.6864
210.5108
239.0275
249.2633
257.0581
0.30037 0.520256 0.124432
171.6992
190.5191
215.2236
246.4743
257.4623
257.7679
0.30037 0.520256 0.186648
158.1507
173.6287
222.3017
246.8967
261.439
263.9905
0.30037 0.520256 0.248864
149.334
158.3543
229.5521
242.4902
265.4918
267.0301
0.30037 0.520256 -0.31108
149.1551
149.1551
236.391
236.391
267.3857
267.3857
P	=	499.98	V	=	125.62505	E	=	-655.53184966
0.0 0.0 0.0
0.0
0.0
0.0
214.0141
214.0141
396.1154
0.0 0.0 0.062287
32.8992
32.8992
74.2371
211.2984
211.2984
393.4804
0.0 0.0 0.124574
64.5227
64.5227
145.0077
203.0545
203.0545
385.0174
0.0 0.0 0.186861
94.2084
94.2084
189.2493
189.2493
209.2768
369.3193
0.0 0.0 0.249148
121.9014
121.9014
170.3727
170.3727
264.7548
344.75
0.0 0.0 -0.311435
147.5192
147.5192
147.5216
147.5216
310.0176
310.0968
0.0 0.115494 0.0
60.2777
66.0273
131.0246
224.3505
243.0366
390.6016
0.0 0.115494 0.062287
74.0235
78.4434
144.2012
221.8171
240.4326
388.2012
0.0 0.115494 0.124574
93.1458
107.2425
181.2516
214.2427
232.4801
380.5435
0.0 0.115494 0.186861
116.6318
132.9037
201.7202
219.3014
229.0823
366.4291
0.0 0.115494 0.249148
140.8278
157.1173
184.6928
201.7524
275.1827
344.4806
0.0 0.115494 -0.311435
163.905
164.0584
180.3341
180.8442
313.831
314.3119
0.0 0.230987 0.0
117.4304
120.2961
237.8624
246.4948
300.0519
375.094
0.0 0.230987 0.062287
124.5419
125.1241
244.3695
244.5725
296.5466
374.0964
0.0 0.230987 0.124574
138.3613
143.1949
238.0382
262.494
286.2931
370.6357
0.0 0.230987 0.186861
156.8513
167.6571
227.749
268.9591
288.1356
363.3719
0.0 0.230987 0.249148
177.2161
194.2723
213.7998
248.3625
313.4362
351.0867
0.0 0.230987 -0.311435
196.6108
196.7995
221.2952
223.8113
333.5704
335.649
0.0 0.346481 0.0
155.3522
168.2662
266.4713
307.8578
346.7384
352.5653
0.0 0.346481 0.062287
159.455
168.9897
264.6402
312.4645
333.0647
362.602
0.0 0.346481 0.124574
171.0371
173.6905
259.221
309.7734
328.0471
370.862
0.0 0.346481 0.186861
185.9273
187.6954
250.4896
286.6492
343.0466
374.6182
0.0 0.346481 0.249148
206.0938
206.2492
238.5688
260.3219
357.6861
373.5242
0.0 0.346481 -0.311435
223.5253
223.8613
231.6066
233.0671
367.4198
368.6543
0.0 0.461975 0.0
171.6288
208.4573
278.1409
328.4102
343.5876
370.4605
0.0 0.461975 0.062287
175.6676
205.1014
276.4353
319.8124
348.9061
374.925
0.0 0.461975 0.124574
186.946
199.4171
271.4333
301.1304
360.4972
382.8095
0.0 0.461975 0.186861
199.664
203.1013
263.3301
277.7583
373.0963
389.1096
0.0 0.461975 0.249148
210.1499
221.0367
252.1322
252.4361
383.2567
391.9741
0.0 0.461975 -0.311435
228.0584
229.5696
237.8002
237.9883
389.4245
390.409
0.0 -0.577468 0.0
175.6875
226.4466
281.722
315.561
354.1123
376.4778
0.0 -0.577468 0.062287
179.7495
221.3901
280.0599
308.8064
358.9789
380.0555
0.0 -0.577468 0.124574
191.0285
211.4719
275.1704
292.1997
370.0875
387.2876
0.0 -0.577468 0.186861
206.1501
207.118
267.1894
270.689
381.9463
393.6702
0.0 -0.577468 0.249148
211.1599
224.9512
247.6206
256.0842
391.1262
397.0877
0.0 -0.577468 -0.311435
224.8068
227.8368
241.7301
241.9145
395.2911
397.3668
0.10002 0.17324 0.0
102.6867
117.3609
202.1739
250.108
280.5403
380.0829
0.10002 0.17324 0.062287
110.9165
122.2174
210.0293
248.7243
277.486
378.4148
0.10002 0.17324 0.124574
131.0198
135.3429
226.5865
248.688
268.4372
373.0714
0.10002 0.17324 0.186861
153.372
155.972
225.8969
253.8491
269.5211
363.1774
0.10002 0.17324 0.249148
172.873
180.6916
214.8232
234.8145
299.1301
347.73
0.10002 0.17324 -0.311435
188.6129
189.7795
214.4392
215.1033
326.1113
326.2436
0.10002 0.288734 0.0
151.6902
164.619
253.5275
295.653
325.4313
360.9648
0.10002 0.288734 0.062287
152.1363
169.1994
256.0719
297.4696
319.1546
363.2461
0.10002 0.288734 0.124574
157.5295
180.6498
258.3059
299.5036
309.8048
366.4112
0.10002 0.288734 0.186861
171.3911
195.7612
254.1101
281.0027
323.0628
366.5193
0.10002 0.288734 0.249148
191.978
210.7535
244.244
259.6147
339.8203
362.068
0.10002 0.288734 -0.311435
210.8166
213.1016
241.3624
243.2401
352.7027
353.8058
0.10002 0.404228 0.0
190.6474
195.8449
280.7744
331.0248
336.95
358.4853
0.10002 0.404228 0.062287
187.4683
199.6197
280.4418
323.6984
337.8351
365.1974
0.10002 0.404228 0.124574
183.0657
209.5088
276.5589
305.835
347.3663
374.2564
0.10002 0.404228 0.186861
185.1775
223.0573
264.8767
288.2682
359.8838
380.2023
0.10002 0.404228 0.249148
197.0722
231.9344
250.9012
274.0965
371.15
381.9385
0.10002 0.404228 -0.311435
215.306
216.2481
259.855
260.4542
378.8558
378.8846
0.10002 0.519721 0.0
200.3363
226.9472
292.007
315.6798
348.1809
372.7158
0.10002 0.519721 0.062287
201.3947
224.1148
288.398
310.9922
353.3021
376.0546
0.10002 0.519721 0.124574
199.1749
225.4376
276.1871
302.1537
364.6617
382.9212
0.10002 0.519721 0.186861
195.3175
236.5942
256.9521
292.5919
376.6047
389.1523
0.10002 0.519721 0.249148
199.722
233.011
253.297
281.445
385.7633
392.5514
0.10002 0.519721 -0.311435
212.3455
214.2223
267.8049
268.4228
390.564
392.1749
0.200041 0.346481 0.0
191.421
216.509
276.4464
336.7373
339.9697
339.9872
0.200041 0.346481 0.062287
187.2102
219.4354
281.1415
320.7692
337.7655
355.1834
0.200041 0.346481 0.124574
180.8393
227.263
288.6022
298.5278
342.2013
365.9861
0.200041 0.346481 0.186861
181.3423
236.0587
276.4605
290.2505
351.2243
372.1423
0.200041 0.346481 0.249148
192.1983
231.5965
268.0701
285.205
361.7265
373.429
0.200041 0.346481 -0.311435
210.4884
212.037
275.7054
276.6051
369.7462
369.8091
0.200041 0.461975 0.0
227.7568
244.5983
302.7604
315.8704
341.9097
361.1087
0.200041 0.461975 0.062287
219.4285
248.7504
299.7222
312.0776
348.0967
363.6477
0.200041 0.461975 0.124574
204.802
255.3063
282.4215
315.936
356.8266
370.4954
0.200041 0.461975 0.186861
194.7023
247.4271
277.5932
315.5305
366.1347
377.322
0.200041 0.461975 0.249148
194.9409
225.2963
288.1609
309.602
374.4592
380.9095
0.200041 0.461975 -0.311435
205.6174
206.3242
299.8066
299.9946
379.5525
380.1249
0.200041 0.577468 0.0
246.9621
251.6672
300.8478
316.4826
339.6062
368.5121
0.200041 0.577468 0.062287
235.1061
259.3909
287.72
323.2443
345.2448
370.2465
0.200041 0.577468 0.124574
217.6244
265.6125
269.6906
327.1117
357.4077
375.005
0.200041 0.577468 0.186861
202.9895
241.758
282.0257
324.5499
369.5905
380.4466
0.200041 0.577468 0.249148
197.3923
219.6838
295.0891
317.4682
378.5759
383.7854
0.200041 0.577468 -0.311435
202.7789
204.2553
307.1179
307.4931
382.74
383.9621
0.300061 0.519721 0.0
258.4902
283.6265
291.4126
320.3958
336.1342
363.3798
0.300061 0.519721 0.062287
248.7326
277.5514
289.3457
327.6506
343.8703
362.6655
0.300061 0.519721 0.124574
229.2072
256.2976
296.1822
339.3583
356.8008
361.7809
0.300061 0.519721 0.186861
210.8046
232.77
306.5457
342.8777
365.2862
367.2501
0.300061 0.519721 0.249148
199.9703
212.6034
317.8917
337.575
371.4429
373.332
0.300061 0.519721 -0.311435
200.3449
200.7342
328.5796
328.6679
374.5806
374.7159
P	=	999.84	V	=	114.0931	E	=	-655.47458456
0.0 0.0 0.0
-0.0
0.0
0.0
249.6795
249.6795
471.6241
0.0 0.0 0.062333
38.4072
38.4072
87.6396
246.4928
246.4928
468.2271
0.0 0.0 0.124666
75.3735
75.3735
171.1498
236.8532
236.8532
457.4731
0.0 0.0 0.187
110.1095
110.1095
220.7825
220.7825
246.9814
437.9452
0.0 0.0 0.249333
142.4761
142.4761
198.8663
198.8663
312.5507
407.9984
0.0 0.0 -0.311666
172.3186
172.3186
172.3257
172.3257
366.3559
366.3817
0.0 0.115465 0.0
70.8186
76.8202
155.136
261.6708
284.1129
464.7721
0.0 0.115465 0.062333
86.3901
91.4691
171.0831
258.8417
280.9431
461.703
0.0 0.115465 0.124666
109.124
124.5394
215.0363
250.1992
271.4999
452.0425
0.0 0.115465 0.187
136.5746
154.5004
235.6306
255.9623
271.3101
434.6098
0.0 0.115465 0.249333
164.6044
182.9255
215.6271
235.4034
325.5365
408.0454
0.0 0.115465 -0.311666
191.3863
191.4827
210.1622
210.8353
371.4877
371.8514
0.0 0.23093 0.0
137.5973
140.3027
281.7737
287.6266
352.2325
445.3964
0.0 0.23093 0.062333
145.6789
146.4728
285.3823
289.8587
347.8724
444.1707
0.0 0.23093 0.124666
162.5408
166.9278
278.4701
310.9844
335.626
439.9414
0.0 0.23093 0.187
183.8882
195.1881
266.5826
314.2559
341.7511
431.2691
0.0 0.23093 0.249333
206.9288
226.3123
249.9522
289.5842
371.426
416.8192
0.0 0.23093 -0.311666
229.4287
229.6537
258.0331
260.3562
396.2072
397.669
0.0 0.346395 0.0
181.7646
196.5771
311.6278
364.7109
409.2885
417.102
0.0 0.346395 0.062333
186.9982
197.5269
309.6738
369.8239
393.1179
429.3184
0.0 0.346395 0.124666
200.9197
203.1101
303.7276
363.8995
389.369
439.6904
0.0 0.346395 0.187
217.3862
219.9647
293.54
336.1218
407.0282
444.6005
0.0 0.346395 0.249333
240.8016
240.9402
279.1708
304.6338
424.2811
443.587
0.0 0.346395 -0.311666
261.035
261.2661
270.9206
272.2975
436.4624
437.227
0.0 0.46186 0.0
201.3793
243.1042
326.2422
386.8317
406.8704
439.7368
0.0 0.46186 0.062333
206.2171
239.5351
324.2769
376.5978
413.3446
445.1865
0.0 0.46186 0.124666
219.3715
233.5616
318.4236
354.4261
427.4627
454.8705
0.0 0.46186 0.187
234.2134
237.8172
308.6817
326.7215
442.8598
462.5105
0.0 0.46186 0.249333
246.4539
258.2197
295.1065
296.738
455.336
465.7784
0.0 0.46186 -0.311666
268.0647
269.1323
277.8713
278.0211
462.9535
463.6791
0.0 -0.577325 0.0
206.3881
264.0133
330.9085
370.8571
419.1589
448.0637
0.0 -0.577325 0.062333
211.0797
258.5005
328.897
363.151
425.1369
452.2725
0.0 -0.577325 0.124666
224.0432
247.7521
322.9356
343.9412
438.8473
460.889
0.0 -0.577325 0.187
242.1886
242.4646
313.1559
318.7007
453.4576
468.5022
0.0 -0.577325 0.249333
248.3001
262.9645
291.3684
299.65
464.8034
472.3698
0.0 -0.577325 -0.311666
265.0158
267.302
282.5977
282.691
470.5448
471.9498
0.099996 0.173198 0.0
120.4153
136.6726
238.7065
292.963
328.7388
451.6406
0.099996 0.173198 0.062333
129.711
142.7537
247.8946
291.7824
325.0168
449.5631
0.099996 0.173198 0.124666
152.6015
158.645
266.023
293.8455
314.0489
442.9686
0.099996 0.173198 0.187
179.6667
181.2815
264.1472
296.513
319.8402
430.9301
0.099996 0.173198 0.249333
201.9502
210.0193
250.9222
273.8359
354.83
412.3917
0.099996 0.173198 -0.311666
220.1346
220.9185
249.9023
250.6505
386.7406
386.8352
0.099996 0.288663 0.0
177.3657
192.1785
296.6139
350.024
383.0155
427.6362
0.099996 0.288663 0.062333
177.846
197.8928
299.5947
352.3363
375.5376
430.5017
0.099996 0.288663 0.124666
184.0257
211.6455
302.3683
351.7159
367.4866
434.5586
0.099996 0.288663 0.187
199.8798
229.1669
297.5302
328.9459
383.6051
434.9766
0.099996 0.288663 0.249333
223.5134
246.11
285.7631
303.4418
403.2127
429.9188
0.099996 0.288663 -0.311666
245.933
247.6033
282.4526
284.1929
418.9255
419.6718
0.099996 0.404128 0.0
223.2829
228.4537
328.5799
392.233
397.4471
424.5287
0.099996 0.404128 0.062333
219.1247
233.6794
328.3264
381.2173
400.9252
432.597
0.099996 0.404128 0.124666
214.0586
245.6186
324.0045
359.7482
412.4784
443.8587
0.099996 0.404128 0.187
216.4676
261.2463
310.3291
338.8522
427.3406
451.3241
0.099996 0.404128 0.249333
230.0373
270.8446
294.3342
321.7036
440.7165
453.5355
0.099996 0.404128 -0.311666
251.5853
252.1676
304.6507
305.3441
449.8326
449.9574
0.099996 0.519593 0.0
235.1484
264.5396
342.648
370.916
411.9783
443.2574
0.099996 0.519593 0.062333
235.9915
261.95
338.1517
365.8566
418.2094
447.1888
0.099996 0.519593 0.124666
232.8474
264.6299
323.5229
355.9593
432.1273
455.3751
0.099996 0.519593 0.187
228.524
277.6201
301.1163
344.507
446.8382
462.7505
0.099996 0.519593 0.249333
233.6424
272.8245
297.3639
330.8871
458.23
466.5102
0.099996 0.519593 -0.311666
248.926
250.3373
314.5417
315.0525
464.4619
465.5729
0.199991 0.346395 0.0
223.2989
253.271
323.4094
400.4249
400.5708
401.1783
0.199991 0.346395 0.062333
218.4373
256.787
329.0702
377.3459
401.9057
419.741
0.199991 0.346395 0.124666
211.1242
265.9788
338.1272
350.6705
407.2677
433.4172
0.199991 0.346395 0.187
211.6864
275.7731
324.6604
340.311
417.7275
441.3155
0.199991 0.346395 0.249333
224.1386
269.8978
314.7901
334.4087
429.8027
443.1617
0.199991 0.346395 -0.311666
245.6537
246.7548
323.4039
324.2795
438.9623
439.1457
0.199991 0.46186 0.0
265.3911
287.0889
354.6679
371.0096
403.8082
429.4046
0.199991 0.46186 0.062333
255.8102
291.8609
351.2261
366.5679
411.9822
431.9341
0.199991 0.46186 0.124666
239.0197
298.9764
331.6398
371.348
423.4445
439.4472
0.199991 0.46186 0.187
227.4089
288.9596
326.7613
371.2842
434.6716
447.538
0.199991 0.46186 0.249333
227.5913
263.236
339.0193
364.3724
444.504
451.8348
0.199991 0.46186 -0.311666
240.2619
240.8201
352.7558
352.9516
450.5036
450.9141
0.199991 0.577325 0.0
287.8308
295.8212
352.4531
371.2555
400.8485
438.5
0.199991 0.577325 0.062333
274.1628
304.9183
336.6344
380.0596
407.6706
440.3053
0.199991 0.577325 0.124666
253.8983
310.5627
317.3312
385.5602
422.5474
445.4958
0.199991 0.577325 0.187
237.1296
282.6575
331.9708
382.8899
437.5381
451.6673
0.199991 0.577325 0.249333
230.7319
256.8222
347.5445
374.4506
448.6418
455.3751
0.199991 0.577325 -0.311666
237.2964
238.4936
362.0294
362.3958
454.1868
455.0253
0.299987 0.519593 0.0
301.3606
334.4821
340.8425
375.8171
395.0619
432.6164
0.299987 0.519593 0.062333
290.0013
324.563
341.1411
384.7378
404.5802
431.6064
0.299987 0.519593 0.124666
267.3957
299.327
349.4923
399.4853
420.6801
429.9809
0.299987 0.519593 0.187
246.1548
271.9104
361.8088
405.0536
432.8942
433.7565
0.299987 0.519593 0.249333
233.6174
248.3986
375.5011
399.2868
439.5729
441.3769
0.299987 0.519593 -0.311666
234.103
234.4953
388.4445
388.6355
443.1237
443.1923
P	=	1499.99	V	=	106.34635	E	=	-655.40946544
0.0 0.0 0.0
-0.0
-0.0
0.0
278.1569
278.1569
531.8947
0.0 0.0 0.062363
42.9946
42.9946
98.2487
274.6363
274.6363
527.8831
0.0 0.0 0.124726
84.3201
84.3201
191.9288
263.9701
263.9701
515.3059
0.0 0.0 0.187088
123.0702
123.0702
246.1513
246.1513
277.0898
492.7742
0.0 0.0 0.249451
159.1088
159.1088
221.8114
221.8114
350.8349
458.6204
0.0 0.0 -0.311814
192.2993
192.2993
192.3111
192.3111
411.4885
411.511
0.0 0.115453 0.0
78.9189
85.2384
174.191
291.4904
316.7625
523.9666
0.0 0.115453 0.062363
96.0445
101.513
192.285
288.3269
313.2112
520.3505
0.0 0.115453 0.124726
121.5608
138.0635
241.7477
278.7033
302.5938
509.11
0.0 0.115453 0.187088
152.2664
171.6433
262.5178
285.0736
304.8391
489.117
0.0 0.115453 0.249451
183.5347
203.5147
240.3139
261.9435
365.7291
458.9762
0.0 0.115453 -0.311814
213.3875
213.4464
233.9286
234.3968
417.7054
417.9184
0.0 0.230906 0.0
153.2298
155.897
316.2941
320.5256
393.5212
501.4189
0.0 0.230906 0.062363
162.0844
162.7629
317.986
325.408
388.5528
499.9553
0.0 0.230906 0.124726
180.7032
185.3228
310.1927
349.0463
374.7412
495.1272
0.0 0.230906 0.187088
204.6044
216.7623
296.8821
349.8668
384.0936
485.4452
0.0 0.230906 0.249451
230.4073
251.6692
278.3423
321.8203
417.3993
469.3439
0.0 0.230906 -0.311814
255.5738
255.6859
287.1138
288.956
446.1371
447.0347
0.0 0.346359 0.0
202.2756
218.6691
347.7844
409.1221
458.6617
468.3072
0.0 0.346359 0.062363
208.0007
219.8452
345.5751
414.5882
440.6478
482.1276
0.0 0.346359 0.124726
223.4158
226.1952
338.8004
406.3906
437.5873
494.2005
0.0 0.346359 0.187088
242.2551
244.6733
327.2343
374.9666
457.4051
500.0875
0.0 0.346359 0.249451
268.0473
268.628
310.9982
339.5297
476.8805
499.1498
0.0 0.346359 -0.311814
290.7736
290.8465
302.0987
303.3703
491.1155
491.5446
0.0 0.461812 0.0
224.3491
270.1788
364.8051
432.9249
456.1857
494.1686
0.0 0.461812 0.062363
229.63
266.4285
362.5779
421.2854
463.7515
500.4038
0.0 0.461812 0.124726
244.1456
260.405
355.8596
396.227
479.9642
511.6683
0.0 0.461812 0.187088
261.6498
264.6463
344.6467
365.1605
497.6718
520.5582
0.0 0.461812 0.249451
275.4422
287.4846
329.0731
331.7175
512.1563
524.2593
0.0 0.461812 -0.311814
299.8078
300.6882
309.6106
309.6649
521.0972
521.6927
0.0 -0.577265 0.0
230.0205
293.3497
370.3651
414.3737
469.8825
504.1175
0.0 -0.577265 0.062363
235.1905
287.4928
368.0583
405.8762
476.7358
508.9495
0.0 -0.577265 0.124726
249.4931
276.1685
361.1964
384.6141
492.5514
518.9086
0.0 -0.577265 0.187088
269.8912
270.6014
349.9057
356.5566
509.5395
527.7103
0.0 -0.577265 0.249451
277.7969
292.7564
326.0648
334.353
522.8709
532.0573
0.0 -0.577265 -0.311814
296.8514
298.9016
314.8824
315.0097
530.024
531.0842
0.099985 0.173179 0.0
134.1283
151.7625
267.3578
327.3024
366.8859
508.6982
0.099985 0.173179 0.062363
144.1824
158.5595
277.54
326.1569
362.6203
506.2853
0.099985 0.173179 0.124726
169.3024
176.3352
296.7567
329.6866
350.0766
498.7108
0.099985 0.173179 0.187088
199.9066
201.1144
294.0964
330.1199
359.5966
485.0443
0.099985 0.173179 0.249451
224.8601
233.1581
279.3729
304.5018
399.0701
464.1051
0.099985 0.173179 -0.311814
245.0658
245.8137
278.0166
278.3734
435.1415
435.2243
0.099985 0.288632 0.0
197.3767
213.6584
330.4983
393.074
428.5322
480.6151
0.099985 0.288632 0.062363
197.8737
219.955
333.7763
395.5378
420.2001
483.8706
0.099985 0.288632 0.124726
204.6083
235.2258
336.8102
392.6464
413.0769
488.6125
0.099985 0.288632 0.187088
222.1752
254.883
331.4463
366.592
431.2938
489.3413
0.099985 0.288632 0.249451
248.4432
273.904
318.4823
337.8107
453.3265
483.8432
0.099985 0.288632 -0.311814
273.6391
275.0519
315.1414
316.2969
471.468
471.9219
0.099985 0.404085 0.0
248.5557
253.9449
366.52
440.0456
445.2303
476.6362
0.099985 0.404085 0.062363
243.6719
260.0602
366.3022
426.344
450.4697
485.7426
0.099985 0.404085 0.124726
238.2157
273.4421
361.444
401.9747
463.5718
498.7816
0.099985 0.404085 0.187088
241.1472
290.9147
346.0164
378.5798
480.3609
507.5497
0.099985 0.404085 0.249451
256.2902
301.5051
328.5557
359.2229
495.6008
510.2211
0.099985 0.404085 -0.311814
280.3008
280.8082
340.2515
340.7003
506.0239
506.1714
0.099985 0.519538 0.0
261.9585
293.8979
383.0135
414.3259
461.6674
498.6267
0.099985 0.519538 0.062363
262.6111
291.4379
377.756
408.9767
468.8593
503.0529
0.099985 0.519538 0.124726
258.9245
295.1458
360.9526
398.3784
484.8945
512.4186
0.099985 0.519538 0.187088
254.5878
309.7318
335.8645
385.6224
501.9541
520.895
0.099985 0.519538 0.249451
260.622
304.321
332.0615
370.0808
515.3435
525.1081
0.099985 0.519538 -0.311814
277.9871
279.1618
351.5727
351.9136
522.888
523.7322
0.19997 0.346359 0.0
248.2283
281.8767
359.9983
447.966
449.5175
451.113
0.19997 0.346359 0.062363
242.8122
285.7387
366.4225
421.8228
452.5809
470.633
0.19997 0.346359 0.124726
234.7705
295.8478
376.8388
391.4952
458.4564
486.5772
0.19997 0.346359 0.187088
235.617
306.5495
362.3482
379.6598
469.9937
495.9599
0.19997 0.346359 0.249451
249.5941
299.9972
351.4463
373.2596
483.5002
498.3837
0.19997 0.346359 -0.311814
273.4913
274.4938
361.2083
361.759
493.8494
493.9538
0.19997 0.461812 0.0
294.7854
319.9422
395.2268
414.2466
452.1621
483.3429
0.19997 0.461812 0.062363
284.114
325.2228
391.5519
409.1475
461.9067
485.8648
0.19997 0.461812 0.124726
265.6678
332.8435
369.9157
414.9027
475.5936
493.7956
0.19997 0.461812 0.187088
253.2289
321.2599
365.0794
415.3291
488.4816
502.9275
0.19997 0.461812 0.249451
253.781
293.0767
378.9405
407.6688
499.7645
507.9558
0.19997 0.461812 -0.311814
267.9796
268.4083
394.5527
394.6828
506.6616
506.9788
0.19997 0.577265 0.0
319.6948
329.8363
392.7925
414.3837
448.4135
493.6094
0.19997 0.577265 0.062363
304.4144
340.1682
374.7883
424.8121
456.2052
495.4832
0.19997 0.577265 0.124726
281.9425
345.4941
354.3644
431.7409
473.3392
501.0256
0.19997 0.577265 0.187088
263.81
314.5641
370.9846
429.1107
490.8092
507.8615
0.19997 0.577265 0.249451
257.3038
286.2243
388.7121
419.5569
503.918
512.0383
0.19997 0.577265 -0.311814
264.9792
265.9569
405.3875
405.6303
510.7257
511.3505
0.299956 0.519538 0.0
334.7537
373.7891
379.376
418.7637
440.9938
487.3692
0.299956 0.519538 0.062363
321.9838
360.9563
381.3214
429.1061
451.9657
486.1416
0.299956 0.519538 0.124726
296.8771
332.4801
390.9541
446.5258
470.6627
483.8822
0.299956 0.519538 0.187088
273.7645
302.2335
404.9498
454.1093
486.061
486.1968
0.299956 0.519538 0.249451
260.511
276.7232
420.6176
448.0172
493.4437
495.2186
0.299956 0.519538 -0.311814
261.3616
261.6309
435.587
435.7206
497.4689
497.5237
P	=	1999.72	V	=	100.55875	E	=	-655.34101802
0.0 0.0 0.0
-0.0
-0.0
0.0
301.9873
301.9873
583.768
0.0 0.0 0.062383
46.7058
46.7058
106.7648
298.1745
298.1745
579.0751
0.0 0.0 0.124765
91.5651
91.5651
208.9029
286.6082
286.6082
564.6218
0.0 0.0 0.187148
133.5947
133.5947
267.2543
267.2543
302.1676
539.3194
0.0 0.0 0.24953
172.6836
172.6836
240.7936
240.7936
383.1595
501.5735
0.0 0.0 -0.311913
208.7226
208.7226
208.7262
208.7263
449.7652
449.8358
0.0 0.11544 0.0
85.8558
92.3701
190.2043
316.4336
343.9819
574.8366
0.0 0.11544 0.062383
104.1319
109.7744
210.091
312.9759
340.1176
570.6557
0.0 0.11544 0.124765
131.8335
149.1707
264.0953
302.4956
328.5197
557.8205
0.0 0.11544 0.187148
165.1539
185.7315
284.8931
309.3219
333.0257
535.4161
0.0 0.11544 0.24953
199.0936
220.4109
260.7629
284.0297
399.7361
502.1006
0.0 0.11544 -0.311913
231.4997
231.5907
253.4971
253.9728
456.7459
457.0129
0.0 0.230881 0.0
166.3637
169.1173
345.4163
348.0684
427.905
549.4021
0.0 0.230881 0.062383
175.7949
176.5357
345.2547
355.3475
422.4589
547.7846
0.0 0.230881 0.124765
195.9337
200.8891
336.6842
380.9508
407.4725
542.3518
0.0 0.230881 0.187148
221.8456
234.9335
322.1424
379.6182
419.8094
531.5099
0.0 0.230881 0.24953
249.8729
272.7422
301.9747
348.8308
456.3697
513.6154
0.0 0.230881 -0.311913
277.1823
277.4008
311.203
312.9081
487.9851
489.0116
0.0 0.346321 0.0
219.7782
236.9572
378.1078
446.6772
500.0852
511.9909
0.0 0.346321 0.062383
225.9099
238.3879
375.6356
452.2825
480.8596
527.0235
0.0 0.346321 0.124765
242.4852
245.6646
368.1058
442.2344
478.2882
540.5403
0.0 0.346321 0.187148
263.3284
265.4634
355.3692
407.7552
499.9351
547.1276
0.0 0.346321 0.24953
290.8365
291.9933
337.6157
368.863
521.424
546.0517
0.0 0.346321 -0.311913
315.5313
315.6888
328.3718
329.2964
537.1183
537.6761
0.0 0.461762 0.0
244.1643
292.581
397.1594
472.0041
497.9102
540.3118
0.0 0.461762 0.062383
249.7841
288.883
394.6633
459.1628
506.3113
547.1887
0.0 0.461762 0.124765
265.3107
283.0331
387.1613
431.7168
524.2246
559.7368
0.0 0.461762 0.187148
284.9155
287.3896
374.7272
397.7817
543.9585
569.6917
0.0 0.461762 0.24953
300.1335
312.1485
357.5762
361.2918
560.2753
573.8086
0.0 0.461762 -0.311913
326.5243
327.616
336.244
336.3406
570.4275
570.8516
0.0 -0.577202 0.0
250.5255
317.7548
403.4609
451.0609
512.8068
551.8555
0.0 -0.577202 0.062383
256.0176
311.7219
400.8756
441.9408
520.3172
557.1141
0.0 -0.577202 0.124765
271.2812
300.1251
393.2092
419.0019
537.8235
568.0768
0.0 -0.577202 0.187148
293.2079
294.7311
380.6608
388.6224
556.8913
577.8743
0.0 -0.577202 0.24953
302.9437
317.975
355.5483
363.4821
572.0664
582.7063
0.0 -0.577202 -0.311913
323.8508
325.9704
342.0552
342.3026
580.4774
581.3346
0.099974 0.173161 0.0
145.7042
164.4946
291.4841
356.0677
398.6349
557.6185
0.099974 0.173161 0.062383
156.4094
171.8327
302.4672
354.9896
393.9364
554.8706
0.099974 0.173161 0.124765
183.3525
191.0689
322.4441
359.9115
380.1157
546.3214
0.099974 0.173161 0.187148
216.6532
217.6785
319.0598
358.149
393.1614
531.0729
0.099974 0.173161 0.24953
243.7747
252.367
303.0574
330.0532
436.406
507.9063
0.099974 0.173161 -0.311913
265.6185
266.425
301.2615
301.6477
475.9881
476.1268
0.099974 0.288601 0.0
213.977
231.7931
359.0042
429.3106
466.5686
525.9045
0.099974 0.288601 0.062383
214.5763
238.5625
362.4396
431.8462
457.6748
529.5115
0.099974 0.288601 0.124765
221.9988
255.0406
365.5778
426.9593
451.5834
534.7766
0.099974 0.288601 0.187148
241.0104
276.3368
359.7453
398.2378
471.5975
535.5604
0.099974 0.288601 0.24953
269.3319
296.9411
345.7432
366.7317
495.7398
529.4059
0.099974 0.288601 -0.311913
296.5813
297.929
342.2849
343.3425
515.6953
516.2224
0.099974 0.404042 0.0
270.0402
274.9565
398.3473
480.3832
485.915
520.6073
0.099974 0.404042 0.062383
264.2842
282.2596
398.0843
464.608
492.4035
530.6775
0.099974 0.404042 0.124765
258.6201
296.9072
392.7623
437.825
506.7442
545.3009
0.099974 0.404042 0.187148
262.0583
315.8211
376.0376
412.1331
525.1819
555.1827
0.099974 0.404042 0.24953
278.501
327.1636
357.3394
390.7733
542.062
558.1933
0.099974 0.404042 -0.311913
304.3768
304.9137
370.0511
370.4525
553.6612
553.6862
0.099974 0.519482 0.0
284.922
318.2502
416.7891
451.0327
503.6864
545.6396
0.099974 0.519482 0.062383
285.3504
316.1551
410.8871
445.4465
511.6124
550.4354
0.099974 0.519482 0.124765
281.1529
320.9165
392.4011
434.219
529.3844
560.723
0.099974 0.519482 0.187148
276.8199
336.8253
365.2335
420.2627
548.4963
570.1351
0.099974 0.519482 0.24953
283.6234
330.9577
361.3222
403.0714
563.6799
574.7869
0.099974 0.519482 -0.311913
302.5102
303.7647
382.7079
383.0058
572.3889
573.0642
0.199949 0.346321 0.0
268.7252
305.9444
390.8337
487.7284
490.7671
493.8019
0.199949 0.346321 0.062383
263.0503
310.062
397.801
459.4287
495.4043
513.7562
0.199949 0.346321 0.124765
254.6829
320.8601
409.1952
426.1739
501.7741
531.7328
0.199949 0.346321 0.187148
255.7847
332.2618
394.4127
412.4565
514.2513
542.3776
0.199949 0.346321 0.24953
270.9012
325.2301
382.3336
405.6612
528.9293
545.1879
0.199949 0.346321 -0.311913
296.8041
297.6762
392.719
393.2311
540.2525
540.3471
0.199949 0.461762 0.0
319.0521
347.692
429.2583
450.9857
492.7805
528.9441
0.199949 0.461762 0.062383
307.7323
353.3669
425.5373
445.1437
503.9319
531.4964
0.199949 0.461762 0.124765
288.1861
361.3656
402.5504
451.4543
519.6223
539.829
0.199949 0.461762 0.187148
275.1354
348.7212
397.5162
452.2146
533.9882
549.8545
0.199949 0.461762 0.24953
275.9468
318.433
412.5049
443.9287
546.4821
555.4678
0.199949 0.461762 -0.311913
291.3211
291.8349
429.568
429.6935
554.1459
554.39
0.199949 0.577202 0.0
346.2108
358.6584
426.8766
450.3473
488.5883
540.199
0.199949 0.577202 0.062383
329.8476
369.9447
407.0252
462.3071
497.165
542.1374
0.199949 0.577202 0.124765
305.8024
375.1933
385.661
470.5418
516.1817
548.0101
0.199949 0.577202 0.187148
286.6413
341.8124
403.8978
467.9569
535.7546
555.4333
0.199949 0.577202 0.24953
279.9587
311.294
423.3477
457.4376
550.5736
559.9746
0.199949 0.577202 -0.311913
288.3839
289.4341
441.7622
441.981
558.4557
558.9719
0.299923 0.519482 0.0
362.6006
407.0345
411.9279
454.7844
479.501
533.4589
0.299923 0.519482 0.062383
348.8404
391.7681
415.3961
466.327
491.7793
532.0783
0.299923 0.519482 0.124765
321.9561
360.8457
426.0947
485.9985
512.8185
529.3773
0.299923 0.519482 0.187148
297.3959
328.33
441.4274
495.2328
530.2272
531.2467
0.299923 0.519482 0.24953
283.429
300.9806
458.6369
488.9197
538.848
540.6065
0.299923 0.519482 -0.311913
284.4591
284.7876
475.1725
475.3339
543.2078
543.2711
P	=	2500.12	V	=	95.95743	E	=	-655.27090203
0.0 0.0 0.0
-0.0
-0.0
0.0
322.8822
322.8822
629.3886
0.0 0.0 0.062391
49.6503
49.6503
114.5638
318.7713
318.7713
624.1746
0.0 0.0 0.124781
97.6943
97.6943
224.179
306.4069
306.4069
608.1878
0.0 0.0 0.187172
143.0918
143.0918
285.9226
285.9226
324.3215
580.4033
0.0 0.0 0.249562
185.3616
185.3616
258.0184
258.0184
411.3956
539.275
0.0 0.0 -0.311953
224.0111
224.0111
224.0111
224.0111
483.2247
483.2247
0.0 0.115435 0.0
91.9287
98.5307
204.1871
338.2742
367.743
619.5265
0.0 0.115435 0.062391
110.9767
117.0348
225.7114
334.558
363.5565
614.8878
0.0 0.115435 0.124781
140.5972
158.7169
283.8689
323.3306
351.0974
600.7049
0.0 0.115435 0.187172
176.54
198.119
304.6214
330.5423
357.7896
576.1519
0.0 0.115435 0.249562
213.2075
235.6961
279.0556
303.513
429.3355
539.9616
0.0 0.115435 -0.311953
247.9982
247.9982
271.2685
271.2685
490.9998
490.9998
0.0 0.23087 0.0
177.9286
180.5933
370.8701
372.1152
457.7647
591.4239
0.0 0.23087 0.062391
187.7979
188.4353
369.0857
381.5835
451.9228
589.6247
0.0 0.23087 0.124781
209.1036
214.2217
359.85
408.959
436.0515
583.6059
0.0 0.23087 0.187172
236.8816
250.6896
344.255
405.4392
451.0486
571.8383
0.0 0.23087 0.249562
266.9991
291.5364
322.6916
371.8905
490.0625
552.6513
0.0 0.23087 -0.311953
296.3445
296.3445
332.9006
332.9006
525.1329
525.1329
0.0 0.346305 0.0
235.1028
253.125
404.4897
479.4254
536.0827
550.0789
0.0 0.346305 0.062391
241.5974
254.7658
401.8096
485.2037
515.9149
566.1497
0.0 0.346305 0.124781
259.1878
262.7293
393.6597
473.4604
514.0114
581.0185
0.0 0.346305 0.187172
281.6871
283.6364
379.9051
436.2091
537.1723
588.3654
0.0 0.346305 0.249562
310.7125
312.3298
360.7863
394.0941
560.1746
587.2843
0.0 0.346305 -0.311953
337.1944
337.1944
351.3624
351.3624
577.6289
577.6289
0.0 0.46174 0.0
261.6802
312.382
425.2145
505.9469
534.1415
580.5628
0.0 0.46174 0.062391
267.6394
308.8136
422.5051
492.0765
543.4716
588.12
0.0 0.46174 0.124781
284.0668
303.2973
414.3868
462.6287
563.0454
602.0428
0.0 0.46174 0.187172
305.4934
307.4372
400.9308
426.3286
584.5372
612.9689
0.0 0.46174 0.249562
321.336
333.7293
382.4066
387.2904
602.3924
617.2263
0.0 0.46174 -0.311953
350.2912
350.2912
359.5245
359.5245
613.6741
613.6741
0.0 -0.577175 0.0
268.7311
339.3052
432.1177
482.8738
550.0162
593.566
0.0 -0.577175 0.062391
274.537
333.2395
429.3324
473.3758
558.2684
599.3216
0.0 -0.577175 0.124781
290.6658
321.5904
421.0502
449.2691
577.5264
611.3664
0.0 -0.577175 0.187172
313.8498
316.229
407.4607
416.92
598.4792
622.0592
0.0 -0.577175 0.249562
324.9432
340.1252
381.3324
388.8794
615.1429
627.1428
0.0 -0.577175 -0.311953
348.361
348.361
365.9651
365.9651
624.9399
624.9399
0.09997 0.173153 0.0
155.8819
175.4477
312.6228
381.1737
426.2613
600.5039
0.09997 0.173153 0.062391
167.1441
183.2629
324.274
380.1568
421.1651
597.469
0.09997 0.173153 0.124781
195.5925
203.8187
344.9008
386.3152
406.2177
588.0601
0.09997 0.173153 0.187172
231.296
232.0422
340.913
382.5516
422.5233
571.3809
0.09997 0.173153 0.249562
260.4716
269.1409
323.8129
352.3669
469.0656
546.2083
0.09997 0.173153 -0.311953
284.238
284.238
321.75
321.75
511.7846
511.7846
0.09997 0.288588 0.0
228.6403
247.4758
383.8748
460.9667
499.6361
565.4516
0.09997 0.288588 0.062391
229.3294
254.629
387.4857
463.5232
490.3313
569.3187
0.09997 0.288588 0.124781
237.2434
272.1495
390.7252
456.8174
485.2829
575.0111
0.09997 0.288588 0.187172
257.355
295.0365
384.4227
425.685
506.7984
575.9377
0.09997 0.288588 0.249562
287.351
317.2804
369.6007
391.4472
532.6229
569.3834
0.09997 0.288588 -0.311953
317.1841
317.1841
366.2778
366.2778
554.6245
554.6245
0.09997 0.404023 0.0
288.837
293.5295
425.9781
515.5185
521.2909
558.9791
0.09997 0.404023 0.062391
282.5273
301.7003
425.683
497.8604
529.0634
569.8878
0.09997 0.404023 0.124781
276.7501
317.4202
419.9419
469.0308
544.5258
586.0039
0.09997 0.404023 0.187172
280.4112
337.5838
402.1457
441.3518
564.3562
596.9212
0.09997 0.404023 0.249562
297.6212
349.5674
382.5939
418.0834
582.6284
600.1809
0.09997 0.404023 -0.311953
325.576
325.576
396.1193
396.1193
595.2263
595.2263
0.09997 0.519458 0.0
305.1992
339.7291
446.0508
482.8672
540.2011
586.754
0.09997 0.519458 0.062391
305.4381
338.0235
439.6019
477.1342
548.8799
591.9267
0.09997 0.519458 0.124781
300.9256
343.7314
419.7411
465.3993
568.2951
603.1496
0.09997 0.519458 0.187172
296.516
360.6504
390.9404
450.4242
589.2184
613.397
0.09997 0.519458 0.249562
303.6092
354.3373
386.9974
431.797
605.9739
618.2777
0.09997 0.519458 -0.311953
324.5761
324.5761
409.9811
409.9811
615.9273
615.9273
0.199939 0.346305 0.0
286.8402
326.7576
417.7454
522.2774
526.6455
531.2318
0.199939 0.346305 0.062391
280.9137
331.1356
425.1779
492.1294
532.8963
551.2267
0.199939 0.346305 0.124781
272.1799
342.5775
437.4166
456.3636
539.5844
570.9595
0.199939 0.346305 0.187172
273.4189
354.54
422.4049
441.015
552.8398
582.7576
0.199939 0.346305 0.249562
289.4968
347.0994
409.277
433.8
568.5824
585.9988
0.199939 0.346305 -0.311953
317.4906
317.4906
420.3211
420.3211
580.8166
580.8166
0.199939 0.46174 0.0
340.4149
371.9403
458.8794
482.8558
528.1516
568.9386
0.199939 0.46174 0.062391
328.5752
377.8889
455.0388
476.4389
540.4687
571.4227
0.199939 0.46174 0.124781
308.115
386.12
430.9416
483.1209
557.8792
579.9584
0.199939 0.46174 0.187172
294.4472
372.6137
425.8149
484.1683
573.5578
590.7557
0.199939 0.46174 0.249562
295.3285
340.7789
441.8095
475.4021
587.2675
596.917
0.199939 0.46174 -0.311953
312.1777
312.1777
460.1294
460.1294
595.7314
595.7314
0.199939 0.577175 0.0
369.4799
384.0021
456.4308
481.5616
523.653
581.0406
0.199939 0.577175 0.062391
352.2278
395.9967
435.0796
494.7454
532.832
582.9384
0.199939 0.577175 0.124781
326.8324
401.1449
412.8773
504.0431
553.3987
588.949
0.199939 0.577175 0.187172
306.791
365.7408
432.5019
501.5346
574.8529
596.8769
0.199939 0.577175 0.249562
300.015
333.4376
453.5463
490.3362
591.2945
601.8355
0.199939 0.577175 -0.311953
309.6885
309.6885
473.5904
473.5904
600.3986
600.3986
0.299909 0.519458 0.0
386.9415
436.1521
440.1897
486.2769
513.0929
573.8813
0.299909 0.519458 0.062391
372.3867
418.5871
445.1158
498.6647
526.3067
572.1953
0.299909 0.519458 0.124781
343.9781
385.5835
456.5259
520.0738
549.2158
568.8141
0.299909 0.519458 0.187172
318.2206
351.2212
473.0024
530.72
568.4766
570.2927
0.299909 0.519458 0.249562
303.8255
322.511
491.7229
524.3986
578.4372
580.1762
0.299909 0.519458 -0.311953
305.3136
305.3136
509.7726
509.7726
583.254
583.254
P	=	3000.34	V	=	92.15979	E	=	-655.20008355
0.0 0.0 0.0
-0.0
0.0
0.0
341.0804
341.0804
669.5096
0.0 0.0 0.062395
52.4075
52.4075
121.2267
336.7561
336.7561
663.7418
0.0 0.0 0.124789
103.0608
103.0608
237.3357
323.7112
323.7112
646.2104
0.0 0.0 0.187184
150.8825
150.8825
302.0174
302.0174
343.5582
616.1234
0.0 0.0 0.249579
195.4568
195.4568
272.4021
272.4021
436.0172
572.0569
0.0 0.0 -0.311974
236.3332
236.3332
236.3332
236.3332
512.3557
512.3557
0.0 0.115428 0.0
97.0877
103.9344
216.6047
357.328
388.5024
658.796
0.0 0.115428 0.062395
117.0658
123.2393
239.5338
353.4054
384.0679
653.6805
0.0 0.115428 0.124789
148.2932
167.0729
301.1527
341.5315
370.8453
638.1711
0.0 0.115428 0.187184
186.1709
208.7044
321.6992
348.9539
379.4454
611.6421
0.0 0.115428 0.249579
224.8534
248.3786
294.5703
320.2024
455.3183
572.9204
0.0 0.115428 -0.311974
261.6458
261.6458
285.9898
285.9898
520.8088
520.8088
0.0 0.230856 0.0
187.6698
190.6533
393.1446
393.4077
483.9664
628.2373
0.0 0.230856 0.062395
198.0
198.898
389.9166
404.7633
477.7327
626.2699
0.0 0.230856 0.124789
220.6431
225.8021
380.0844
433.4881
461.0313
619.7483
0.0 0.230856 0.187184
249.9055
264.2837
363.5057
427.8838
478.5718
607.111
0.0 0.230856 0.249579
281.6858
307.3595
340.621
392.2268
519.959
586.6043
0.0 0.230856 -0.311974
312.7111
312.7111
350.9828
350.9828
557.2643
557.2643
0.0 0.346283 0.0
248.4982
266.6021
427.5925
508.3329
567.7274
583.25
0.0 0.346283 0.062395
255.2919
268.4685
424.7075
514.1087
546.5337
600.4272
0.0 0.346283 0.124789
273.7264
277.1651
415.963
500.4419
545.3833
616.4936
0.0 0.346283 0.187184
297.4095
299.4218
401.2747
460.8164
569.8847
624.4415
0.0 0.346283 0.249579
327.9622
329.832
380.9479
416.1848
594.3115
623.2833
0.0 0.346283 -0.311974
355.9494
355.9494
371.03
371.03
612.9319
612.9319
0.0 0.461711 0.0
276.9257
328.7592
449.8017
535.297
566.1247
615.8682
0.0 0.461711 0.062395
283.128
325.2826
446.8719
520.5172
576.1273
623.9425
0.0 0.461711 0.124789
300.2692
320.0699
438.1226
489.27
597.0121
638.9059
0.0 0.461711 0.187184
322.8952
324.7536
423.6972
450.844
619.9813
650.669
0.0 0.461711 0.249579
339.8505
352.418
403.9485
409.5669
639.1439
655.2116
0.0 0.461711 -0.311974
370.4747
370.4747
379.6715
379.6715
651.3208
651.3208
0.0 -0.577139 0.0
284.542
357.0741
457.2403
510.2993
582.8942
630.0802
0.0 -0.577139 0.062395
290.5712
351.011
454.2267
500.3721
591.6454
636.2006
0.0 -0.577139 0.124789
307.3675
339.4289
445.2917
475.0834
612.1824
649.0718
0.0 -0.577139 0.187184
331.62
334.3803
430.7033
441.0295
634.6844
660.5179
0.0 -0.577139 0.249579
343.8761
359.2429
403.4875
410.8687
652.7027
665.8972
0.0 -0.577139 -0.311974
368.6729
368.6729
386.5407
386.5407
663.3898
663.3898
0.099963 0.173142 0.0
164.4839
185.0822
331.2402
403.276
450.4386
638.1148
0.099963 0.173142 0.062395
176.2056
193.3103
343.4632
402.3587
444.9938
634.7901
0.099963 0.173142 0.124789
206.0623
214.9569
364.5086
409.6914
429.0184
624.5661
0.099963 0.173142 0.187184
243.9118
244.5091
359.9179
403.7496
448.359
606.6258
0.099963 0.173142 0.249579
274.6938
283.6443
341.7534
371.6353
497.7083
579.7389
0.099963 0.173142 -0.311974
299.746
299.746
339.291
339.291
543.0938
543.0938
0.099963 0.288569 0.0
240.9388
261.2399
405.675
488.8875
528.6877
599.9783
0.099963 0.288569 0.062395
241.7186
268.7314
409.3886
491.3978
518.9752
604.1481
0.099963 0.288569 0.124789
250.1736
287.1327
412.6476
482.7254
515.0104
610.3087
0.099963 0.288569 0.187184
271.4829
311.2127
405.9116
449.49
537.8433
611.343
0.099963 0.288569 0.249579
303.1104
334.6094
390.2345
413.2647
565.183
604.337
0.099963 0.288569 -0.311974
334.4623
334.4623
386.7586
386.7586
588.5779
588.5779
0.099963 0.403997 0.0
305.2718
308.9998
450.1995
546.4505
551.9611
592.705
0.099963 0.403997 0.062395
297.9258
318.4502
449.8336
526.7205
561.2499
604.2919
0.099963 0.403997 0.124789
291.9693
335.1812
443.6471
495.9996
577.7351
621.6395
0.099963 0.403997 0.187184
296.0934
356.3899
424.7886
466.6804
598.7491
633.4386
0.099963 0.403997 0.249579
314.3483
368.851
404.3951
441.9582
618.1838
636.9602
0.099963 0.403997 -0.311974
343.7492
343.7492
418.6564
418.6564
631.6442
631.6442
0.099963 0.519425 0.0
322.8751
357.5533
471.6836
510.307
572.4162
622.778
0.099963 0.519425 0.062395
322.761
356.3442
464.6294
504.5406
581.6473
628.2368
0.099963 0.519425 0.124789
317.6348
363.1972
443.3603
492.4963
602.3601
640.1763
0.099963 0.519425 0.187184
313.2484
381.1627
413.0073
476.6587
624.7933
651.1322
0.099963 0.519425 0.249579
320.9482
374.341
409.1824
456.7831
642.8614
656.3093
0.099963 0.519425 -0.311974
343.0742
343.0742
433.5467
433.5467
653.6742
653.6742
0.199927 0.346283 0.0
302.0116
345.0137
441.362
552.5474
557.7851
564.2184
0.199927 0.346283 0.062395
295.9108
349.5649
449.1514
520.4624
565.9653
584.0802
0.199927 0.346283 0.124789
287.006
361.4676
462.0306
482.3956
572.9707
605.46
0.199927 0.346283 0.187184
288.5801
373.8519
446.5517
465.8926
586.8581
618.2737
0.199927 0.346283 0.249579
305.6321
366.0041
432.6979
458.3504
603.4256
621.8371
0.199927 0.346283 -0.311974
335.0506
335.0506
444.1876
444.1876
616.3648
616.3648
0.199927 0.461711 0.0
358.3282
393.1704
484.8499
510.3188
559.1808
604.0651
0.199927 0.461711 0.062395
346.0828
399.3138
480.6191
503.7033
572.5378
606.5274
0.199927 0.461711 0.124789
324.9097
407.6246
455.4939
510.8588
591.5332
615.249
0.199927 0.461711 0.187184
310.9074
393.1365
450.4464
512.1328
608.3498
626.6589
0.199927 0.461711 0.249579
312.0879
359.8418
467.321
502.9238
622.9542
633.2587
0.199927 0.461711 -0.311974
329.8665
329.8665
486.7374
486.7374
631.9939
631.9939
0.199927 0.577139 0.0
389.0156
406.1754
481.8065
508.849
554.5113
616.8416
0.199927 0.577139 0.062395
371.1498
418.7178
459.1189
523.1526
564.2155
618.7383
0.199927 0.577139 0.124789
344.6812
423.2947
436.6889
533.4706
586.1113
624.9096
0.199927 0.577139 0.187184
323.9819
386.1327
457.516
531.0187
609.1243
633.2308
0.199927 0.577139 0.249579
317.1563
352.3131
479.8979
519.131
626.873
638.4424
0.199927 0.577139 -0.311974
327.4241
327.4241
501.2692
501.2692
636.7805
636.7805
0.29989 0.519425 0.0
407.5425
461.6916
464.3678
513.8453
542.4923
609.3506
0.29989 0.519425 0.062395
392.3421
441.5797
471.1624
527.0383
556.6137
607.4734
0.29989 0.519425 0.124789
362.7231
406.7345
483.328
550.0373
581.2592
603.6266
0.29989 0.519425 0.187184
335.9973
370.7719
500.7907
561.9139
602.063
604.7006
0.29989 0.519425 0.249579
321.1812
340.8262
520.7441
555.553
613.0504
614.7262
0.29989 0.519425 -0.311974
322.8645
322.8645
540.0216
540.0216
618.1018
618.1018
P	=	3200.25	V	=	90.80992	E	=	-655.17164163
0.0 0.0 0.0
-0.0
-0.0
0.0
347.7493
347.7493
684.6115
0.0 0.0 0.062397
53.4284
53.4284
123.9035
343.3422
343.3422
678.6393
0.0 0.0 0.124794
105.0575
105.0575
242.526
330.042
330.042
660.5252
0.0 0.0 0.187192
153.7915
153.7915
307.9128
307.9128
350.9822
629.5486
0.0 0.0 0.249589
199.2217
199.2217
277.6961
277.6961
445.3509
584.3506
0.0 0.0 -0.311986
240.9013
240.9013
240.9013
240.9013
523.296
523.296
0.0 0.115424 0.0
99.0122
105.9684
221.2459
364.316
396.1166
673.5703
0.0 0.115424 0.062397
119.3536
125.7082
244.6911
360.3104
391.5849
668.2864
0.0 0.115424 0.124794
151.1821
170.3416
307.689
348.1881
378.0744
652.2911
0.0 0.115424 0.187192
189.7848
212.693
327.9493
355.7064
387.669
625.0051
0.0 0.115424 0.249589
229.207
253.088
300.2775
326.3431
465.1298
585.3026
0.0 0.115424 -0.311986
266.7081
266.7081
291.4295
291.4295
532.0087
532.0087
0.0 0.230848 0.0
191.3474
194.3699
400.8663
401.7692
493.6003
642.0721
0.0 0.230848 0.062397
201.9242
202.7665
397.5565
413.3524
487.219
640.0598
0.0 0.230848 0.124794
224.921
230.2915
387.4906
442.5839
470.2241
633.3729
0.0 0.230848 0.187192
254.7465
269.4438
370.5532
436.171
488.8201
620.3966
0.0 0.230848 0.249589
287.1423
313.2542
347.2109
399.7462
531.1384
599.3554
0.0 0.230848 -0.311986
318.7638
318.7638
357.6778
357.6778
569.3012
569.3012
0.0 0.346272 0.0
253.36
271.7497
436.0516
518.9747
579.3648
595.7076
0.0 0.346272 0.062397
260.2663
273.7254
433.0862
524.7638
557.8731
613.2319
0.0 0.346272 0.124794
279.0219
282.7115
424.1152
510.4772
556.971
629.7541
0.0 0.346272 0.187192
303.382
305.1945
409.086
469.9916
582.0041
637.9229
0.0 0.346272 0.249589
334.2889
336.3892
388.33
424.4187
606.9913
636.7119
0.0 0.346272 -0.311986
362.8293
362.8293
378.3569
378.3569
626.0722
626.0722
0.0 0.461696 0.0
282.4038
335.0466
458.7417
546.3313
577.8646
628.7897
0.0 0.461696 0.062397
288.699
331.6038
455.7299
531.1711
588.1465
637.1271
0.0 0.461696 0.124794
306.1131
326.4939
446.7478
499.2282
609.5572
652.5701
0.0 0.461696 0.187192
329.5107
331.0216
431.9699
460.0007
633.0973
664.6799
0.0 0.461696 0.249589
346.8131
359.2025
411.7792
417.8785
652.7501
669.314
0.0 0.461696 -0.311986
378.0126
378.0126
386.995
386.995
665.2709
665.2709
0.0 -0.57712 0.0
290.2071
363.8977
466.3395
520.6234
594.9593
643.4033
0.0 -0.57712 0.062397
296.3234
357.8276
463.2422
510.5001
603.927
649.7307
0.0 -0.57712 0.124794
313.377
346.2533
454.0686
484.7263
624.9872
663.02
0.0 -0.57712 0.187192
338.034
341.2821
439.1177
450.0183
648.0794
674.7934
0.0 -0.57712 0.249589
351.0044
366.1579
411.7435
418.8301
666.5921
680.2661
0.0 -0.57712 -0.311986
376.2607
376.2607
393.9897
393.9897
677.6154
677.6154
0.09996 0.173136 0.0
167.7191
188.6575
338.1479
411.4216
459.3178
652.2533
0.09996 0.173136 0.062397
179.7049
197.0445
350.5718
410.5293
453.7404
648.8376
0.09996 0.173136 0.124794
210.1342
219.1091
371.764
418.3149
437.3876
638.3327
0.09996 0.173136 0.187192
248.621
249.2309
366.908
411.5491
458.0002
619.9102
0.09996 0.173136 0.249589
279.9894
289.0391
348.3546
378.748
508.4449
592.3436
0.09996 0.173136 -0.311986
305.4941
305.4941
345.7715
345.7715
554.8403
554.8403
0.09996 0.28856 0.0
245.6145
266.269
413.7067
499.1693
539.3843
612.9425
0.09996 0.28856 0.062397
246.4561
273.9032
417.4654
501.6486
529.5387
617.2275
0.09996 0.28856 0.124794
255.1281
292.6556
420.7389
492.3136
525.9498
623.5643
0.09996 0.28856 0.187192
276.8218
317.1884
413.8356
458.3331
549.3226
624.6224
0.09996 0.28856 0.249589
308.9819
341.0058
397.8578
421.3607
577.2882
617.4152
0.09996 0.28856 -0.311986
340.8564
340.8564
394.3378
394.3378
601.2464
601.2464
0.09996 0.403984 0.0
311.2192
314.9201
459.0712
557.8108
563.4755
605.0818
0.09996 0.403984 0.062397
303.694
324.6498
458.6889
537.4765
573.113
617.0022
0.09996 0.403984 0.124794
297.722
341.7104
452.3584
506.0553
589.9711
634.875
0.09996 0.403984 0.187192
301.9974
363.2862
433.16
476.0759
611.4572
647.0244
0.09996 0.403984 0.249589
320.5868
375.9277
412.4805
450.7599
631.3534
650.6332
0.09996 0.403984 -0.311986
350.4794
350.4794
426.9581
426.9581
645.1593
645.1593
0.09996 0.519408 0.0
329.2511
364.3776
481.0149
520.6232
584.2494
635.9339
0.09996 0.519408 0.062397
329.0563
363.2986
473.7751
514.7752
593.7125
641.5564
0.09996 0.519408 0.124794
323.8334
370.4371
452.0544
502.5064
614.9473
653.8552
0.09996 0.519408 0.187192
319.4985
388.7121
421.1703
486.2905
637.9571
665.1185
0.09996 0.519408 0.249589
327.4011
381.7244
417.3423
465.9355
656.5084
670.4004
0.09996 0.519408 -0.311986
349.9243
349.9243
442.1831
442.1831
667.6424
667.6424
0.19992 0.346272 0.0
307.8022
351.6382
450.0673
563.7006
569.4654
576.3065
0.19992 0.346272 0.062397
301.642
356.2638
458.0165
530.9938
578.0716
596.3172
0.19992 0.346272 0.124794
292.67
368.3544
471.1682
492.0972
585.1907
618.3209
0.19992 0.346272 0.187192
294.3238
380.9057
455.5652
475.1099
599.3631
631.5149
0.19992 0.346272 0.249589
311.6706
372.9659
441.3773
467.4063
616.3108
635.183
0.19992 0.346272 -0.311986
341.567
341.567
452.9814
452.9814
629.5686
629.5686
0.19992 0.461696 0.0
365.1534
400.8854
494.3768
520.6223
570.5954
616.9094
0.19992 0.461696 0.062397
352.7223
407.1238
490.0964
513.8322
584.3639
619.3882
0.19992 0.461696 0.124794
331.2593
415.4694
464.6446
521.1202
603.9326
628.2549
0.19992 0.461696 0.187192
317.1065
400.679
459.562
522.4423
621.1802
639.95
0.19992 0.461696 0.249589
318.3554
366.8851
476.7049
513.0319
636.1465
646.7263
0.19992 0.461696 -0.311986
336.4339
336.4339
496.5
496.5
645.4223
645.4223
0.19992 0.57712 0.0
396.4385
414.2494
491.3382
518.824
565.8594
629.921
0.19992 0.57712 0.062397
378.2541
427.0784
468.0662
533.6122
575.7837
631.842
0.19992 0.57712 0.124794
351.3654
431.5056
445.4648
544.2945
598.2111
638.1318
0.19992 0.57712 0.187192
330.4096
393.6798
466.7257
541.8298
621.8178
646.6477
0.19992 0.57712 0.249589
323.5455
359.3013
489.5724
529.6706
640.0459
651.9749
0.19992 0.57712 -0.311986
334.0078
334.0078
511.4053
511.4053
650.2401
650.2401
0.29988 0.519408 0.0
415.3327
471.0544
473.4508
523.931
553.2783
622.3325
0.29988 0.519408 0.062397
399.8513
450.1186
480.7818
537.4694
567.7794
620.38
0.29988 0.519408 0.124794
369.7405
414.5689
493.2136
561.1021
593.1127
616.359
0.29988 0.519408 0.187192
342.637
378.0041
511.0171
573.3903
614.5117
617.3429
0.29988 0.519408 0.249589
327.6521
347.6115
531.3815
566.9481
625.846
627.5397
0.29988 0.519408 -0.311986
329.3884
329.3884
551.0763
551.0763
631.0172
631.0172
P	=	3400.07	V	=	89.53981	E	=	-655.14315299
0.0 0.0 0.0
-0.0
0.0
0.0
354.0709
354.0709
699.2264
0.0 0.0 0.062398
54.462
54.462
126.3096
349.5917
349.5917
693.04
0.0 0.0 0.124795
107.047
107.047
247.2918
336.0618
336.0618
674.3387
0.0 0.0 0.187193
156.6337
156.6337
313.5257
313.5257
357.9711
642.5106
0.0 0.0 0.24959
202.8425
202.8425
282.7375
282.7375
454.3077
596.2517
0.0 0.0 -0.311988
245.2597
245.2597
245.2597
245.2597
533.8863
533.8863
0.0 0.115422 0.0
100.8336
107.8496
225.7376
370.9756
403.3953
687.8644
0.0 0.115422 0.062398
121.4965
127.9649
249.6362
366.8968
398.771
682.3963
0.0 0.115422 0.124795
153.926
173.3763
313.8561
354.5497
384.988
665.8967
0.0 0.115422 0.187193
193.2311
216.4867
333.9292
362.1568
395.4649
637.8788
0.0 0.115422 0.24959
233.3595
257.6086
305.7344
332.2247
474.5341
597.2573
0.0 0.115422 -0.311988
271.5409
271.5409
296.6523
296.6523
542.8204
542.8204
0.0 0.230844 0.0
194.8227
197.857
408.2874
409.8598
502.9112
655.4553
0.0 0.230844 0.062398
205.5662
206.3992
404.9018
421.6226
496.3836
653.3698
0.0 0.230844 0.124795
228.95
234.4024
394.6167
451.231
479.1326
646.4734
0.0 0.230844 0.187193
259.3297
274.2455
377.3356
444.0944
498.6597
633.1595
0.0 0.230844 0.24959
292.3401
318.8629
353.5444
406.9676
541.8841
611.6296
0.0 0.230844 -0.311988
324.5607
324.5607
364.1124
364.1124
580.899
580.899
0.0 0.346265 0.0
257.9546
276.6201
444.2514
529.2524
590.7014
607.7685
0.0 0.346265 0.062398
264.9691
278.6584
441.2094
534.9916
568.9204
625.612
0.0 0.346265 0.124795
284.0392
287.8569
432.0204
520.0976
568.1684
642.5327
0.0 0.346265 0.187193
308.9505
310.6902
416.6569
478.793
593.6693
650.9079
0.0 0.346265 0.24959
340.3496
342.6089
395.4706
432.3302
619.2199
649.6711
0.0 0.346265 -0.311988
369.4577
369.4577
385.3875
385.3875
638.7669
638.7669
0.0 0.461687 0.0
287.5639
341.0228
467.4916
557.0271
589.1887
641.4338
0.0 0.461687 0.062398
293.9505
337.5912
464.4061
541.4927
599.7321
649.9717
0.0 0.461687 0.124795
311.6385
332.5424
455.2075
508.8626
621.6241
665.8053
0.0 0.461687 0.187193
335.7514
336.9858
440.0813
468.8509
645.7245
678.2261
0.0 0.461687 0.24959
353.4581
365.717
419.4276
425.9145
665.8945
682.9634
0.0 0.461687 -0.311988
385.2808
385.2808
394.0947
394.0947
678.7792
678.7792
0.0 -0.577109 0.0
295.5244
370.4025
475.287
530.6351
606.595
656.4574
0.0 -0.577109 0.062398
301.7265
364.3103
472.1183
520.3339
615.7529
662.9349
0.0 -0.577109 0.124795
319.0401
352.716
462.7295
494.0963
637.2977
676.5501
0.0 -0.577109 0.187193
344.1228
347.8298
447.4208
458.7508
660.981
688.6093
0.0 -0.577109 0.24959
357.8354
372.7965
419.7615
426.6471
680.0213
694.1848
0.0 -0.577109 -0.311988
383.6036
383.6036
401.2306
401.2306
691.4019
691.4019
0.099958 0.173133 0.0
170.7764
192.0672
344.7231
419.3417
467.8456
665.9298
0.099958 0.173133 0.062398
182.9375
200.5991
357.2934
418.4933
462.1345
662.3984
0.099958 0.173133 0.124795
213.849
223.0578
378.5831
426.7049
445.4046
651.5746
0.099958 0.173133 0.187193
253.1164
253.6181
373.5862
419.01
467.2502
632.6755
0.099958 0.173133 0.24959
285.0698
294.1452
354.7162
385.5584
518.753
604.4771
0.099958 0.173133 -0.311988
310.9991
310.9991
352.0037
352.0037
566.1525
566.1525
0.099958 0.288554 0.0
250.0316
271.1155
421.3463
509.1828
549.7539
625.4895
0.099958 0.288554 0.062398
250.8796
278.8759
425.1306
511.5797
539.8088
629.8534
0.099958 0.288554 0.124795
259.6853
297.9526
428.4229
501.4861
536.6111
636.3128
0.099958 0.288554 0.187193
281.7598
322.9419
421.4088
466.7919
560.415
637.3817
0.099958 0.288554 0.24959
314.5115
347.2005
405.1701
429.1416
588.9547
629.9995
0.099958 0.288554 -0.311988
346.9801
346.9801
401.6506
401.6506
613.4519
613.4519
0.099958 0.403976 0.0
316.9161
320.5331
467.6461
568.7729
574.633
617.1814
0.099958 0.403976 0.062398
309.1427
330.5792
467.2404
547.8472
584.6238
629.3587
0.099958 0.403976 0.124795
303.0973
347.9747
460.7681
515.7361
601.8067
647.6756
0.099958 0.403976 0.187193
307.5148
369.951
441.2158
485.1425
623.7171
660.1388
0.099958 0.403976 0.24959
326.4924
382.8218
420.2233
459.2966
644.0608
663.8348
0.099958 0.403976 -0.311988
356.9452
356.9452
435.0006
435.0006
658.211
658.211
0.099958 0.519398 0.0
335.3051
370.8813
490.1378
530.6262
595.6388
648.8226
0.099958 0.519398 0.062398
335.025
369.9236
482.7181
524.7107
605.3173
654.5656
0.099958 0.519398 0.124795
329.6904
377.3424
460.5479
512.253
627.044
667.1468
0.099958 0.519398 0.187193
325.4112
395.9629
429.1111
495.691
650.6236
678.671
0.099958 0.519398 0.24959
333.568
388.9232
425.1947
474.8609
669.6787
684.045
0.099958 0.519398 -0.311988
356.5504
356.5504
450.5635
450.5635
681.156
681.156
0.199916 0.346265 0.0
313.2848
358.1221
458.3023
574.4373
580.783
588.1784
0.199916 0.346265 0.062398
307.0364
362.8054
466.3795
541.1527
589.9619
608.1257
0.199916 0.346265 0.124795
297.9428
375.0656
479.7838
501.4278
597.163
630.7047
0.199916 0.346265 0.187193
299.6674
387.8028
464.2043
483.888
611.5262
644.2483
0.199916 0.346265 0.24959
317.3646
379.7335
449.7543
476.1469
628.7579
648.0156
0.199916 0.346265 -0.311988
347.8121
347.8121
461.5234
461.5234
642.2795
642.2795
0.199916 0.461687 0.0
371.6556
408.3411
503.5264
530.6111
581.5848
629.495
0.199916 0.461687 0.062398
359.0361
414.6794
499.2377
523.575
595.7768
631.9786
0.199916 0.461687 0.124795
337.2737
423.1076
473.4533
530.9631
615.935
640.9245
0.199916 0.461687 0.187193
322.9776
408.0658
468.3161
532.3875
633.5868
652.8234
0.199916 0.461687 0.24959
324.3378
373.7495
485.7741
522.8352
648.8683
659.7256
0.199916 0.461687 -0.311988
342.7766
342.7766
505.9743
505.9743
658.3633
658.3633
0.199916 0.577109 0.0
403.541
421.9788
500.572
528.5317
576.7441
642.7229
0.199916 0.577109 0.062398
385.0505
435.0812
476.767
543.7753
586.8819
644.6615
0.199916 0.577109 0.124795
357.7573
439.5221
453.8696
554.8269
609.8254
651.0371
0.199916 0.577109 0.187193
336.5642
401.0646
475.5637
552.3643
634.0139
659.6923
0.199916 0.577109 0.24959
329.6952
366.1266
498.893
539.9229
652.724
665.0793
0.199916 0.577109 -0.311988
340.3962
340.3962
521.221
521.221
663.2284
663.2284
0.299875 0.519398 0.0
422.81
480.0356
482.2359
533.6452
563.7048
635.0122
0.299875 0.519398 0.062398
407.0686
458.4057
489.9946
547.5148
578.5815
633.0
0.299875 0.519398 0.124795
376.5029
422.2121
502.6781
571.7644
604.5845
628.8207
0.299875 0.519398 0.187193
349.0499
385.081
520.8232
584.5008
626.5443
629.6464
0.299875 0.519398 0.24959
333.9157
354.2399
541.6164
578.0076
638.206
639.8986
0.299875 0.519398 -0.311988
335.7295
335.7295
561.7655
561.7655
643.4632
643.4632
P	=	3600.23	V	=	88.34031	E	=	-655.11461735
0.0 0.0 0.0
0.0
0.0
0.0
360.2509
360.2509
713.4364
0.0 0.0 0.062398
55.4799
55.4799
128.6503
355.7018
355.7018
707.0552
0.0 0.0 0.124796
108.9887
108.9887
251.9114
341.9436
341.9436
687.8059
0.0 0.0 0.187194
159.3806
159.3806
318.9939
318.9939
364.7252
655.1504
0.0 0.0 0.249592
206.3241
206.3241
287.6216
287.6216
462.9615
607.8282
0.0 0.0 -0.31199
249.4576
249.4576
249.4576
249.4576
544.147
544.147
0.0 0.115421 0.0
102.6141
109.6673
229.9856
377.4722
410.4367
701.7595
0.0 0.115421 0.062398
123.5906
130.074
254.4596
373.3247
405.7463
696.128
0.0 0.115421 0.124796
156.6221
176.2302
319.9799
360.7571
391.7373
679.1657
0.0 0.115421 0.187194
196.5865
220.1168
339.7459
368.4545
403.1321
650.4406
0.0 0.115421 0.249592
237.3625
261.93
311.0101
337.9139
483.7026
608.9011
0.0 0.115421 -0.31199
276.1901
276.1901
301.6528
301.6528
553.3334
553.3334
0.0 0.230842 0.0
198.2325
201.2557
415.4998
417.5862
511.8189
668.4422
0.0 0.230842 0.062398
209.1507
209.9618
412.0478
429.6358
505.2014
666.3069
0.0 0.230842 0.124796
232.9221
238.4733
401.5567
459.7677
487.8039
659.2493
0.0 0.230842 0.187194
263.816
278.9629
383.9251
451.8184
508.3926
645.6279
0.0 0.230842 0.249592
297.3694
324.267
359.6633
413.9275
552.439
623.6122
0.0 0.230842 -0.31199
330.1424
330.1424
370.2604
370.2604
592.2267
592.2267
0.0 0.346262 0.0
262.498
281.3952
452.1937
539.1586
601.5642
619.4191
0.0 0.346262 0.062398
269.6304
283.5324
449.0858
544.9109
579.5695
637.5942
0.0 0.346262 0.124796
289.015
293.0044
439.6971
529.4233
579.1515
654.9773
0.0 0.346262 0.187194
314.4918
316.0993
424.0038
487.3176
605.156
663.5911
0.0 0.346262 0.249592
346.25
348.6663
402.3816
439.9457
631.2037
662.3188
0.0 0.346262 -0.31199
375.8708
375.8708
392.1408
392.1408
651.1556
651.1556
0.0 0.461683 0.0
292.7477
346.8448
475.9438
567.3016
600.1487
653.6686
0.0 0.461683 0.062398
299.2256
343.4521
472.7901
551.4158
610.9659
662.4482
0.0 0.461683 0.124796
317.1721
338.5077
463.3874
518.1472
633.366
678.7357
0.0 0.461683 0.187194
341.8908
342.9079
447.9286
477.3905
658.0271
691.4878
0.0 0.461683 0.249592
359.9144
372.1131
426.8374
433.6535
678.6958
696.3019
0.0 0.461683 -0.31199
392.2804
392.2804
401.0036
401.0036
691.945
691.945
0.0 -0.577104 0.0
300.9052
376.712
483.9204
540.2296
617.8695
669.1545
0.0 -0.577104 0.062398
307.1893
370.6198
480.6818
529.7652
627.2047
675.8147
0.0 -0.577104 0.124796
324.7416
359.0342
471.0849
503.1071
649.2089
689.8103
0.0 -0.577104 0.187194
350.198
354.2151
455.4383
467.1682
673.4675
702.1711
0.0 -0.577104 0.249592
364.446
379.3429
427.4878
434.2205
693.0479
707.8115
0.0 -0.577104 -0.31199
390.677
390.677
408.2954
408.2954
704.8333
704.8333
0.099957 0.173131 0.0
173.7762
195.3364
351.053
426.9576
476.0435
679.2109
0.099957 0.173131 0.062398
186.0973
204.0414
363.8659
426.1778
470.2467
675.5868
0.099957 0.173131 0.124796
217.4871
226.9222
385.3005
434.9278
453.2254
664.4906
0.099957 0.173131 0.187194
257.4904
257.8964
380.0783
426.2978
476.4019
645.1445
0.099957 0.173131 0.249592
289.9538
299.0565
360.8394
392.1428
528.8776
616.3211
0.099957 0.173131 -0.31199
316.2689
316.2689
357.9695
357.9695
577.2014
577.2014
0.099957 0.288552 0.0
254.3767
275.8002
428.7585
518.8053
559.6913
637.6323
0.099957 0.288552 0.062398
255.2613
283.7103
432.6037
521.1828
549.7058
642.0964
0.099957 0.288552 0.124796
264.2538
303.1342
435.9324
510.4099
547.0503
648.7335
0.099957 0.288552 0.187194
286.6748
328.5389
428.772
475.0067
571.3618
649.8538
0.099957 0.288552 0.249592
319.8909
353.1567
412.2246
436.6257
600.4281
642.3064
0.099957 0.288552 -0.31199
352.8585
352.8585
408.6508
408.6508
625.4018
625.4018
0.099957 0.403973 0.0
322.5127
326.0328
475.9292
579.3745
585.3723
628.8582
0.099957 0.403973 0.062398
314.5289
336.393
475.5164
557.8468
595.7884
641.3227
0.099957 0.403973 0.124796
308.4578
354.1217
468.9181
525.0915
613.3724
660.1394
0.099957 0.403973 0.187194
312.9949
376.4535
449.0101
493.9045
635.7386
672.9507
0.099957 0.403973 0.249592
332.2569
389.4748
427.7
467.5178
656.5075
676.7394
0.099957 0.403973 -0.31199
363.1765
363.1765
442.7388
442.7388
670.973
670.973
0.099957 0.519393 0.0
341.3279
377.2082
498.9326
540.217
606.6818
661.3569
0.099957 0.519393 0.062398
340.965
376.3862
491.3237
534.2651
616.5642
667.2382
0.099957 0.519393 0.124796
335.5074
384.1047
468.7047
521.6613
638.7685
680.1378
0.099957 0.519393 0.187194
331.2373
403.0481
436.743
504.7739
662.9175
691.9433
0.099957 0.519393 0.249592
339.5662
395.8418
432.8324
483.4879
682.4937
697.3986
0.099957 0.519393 -0.31199
362.9337
362.9337
458.682
458.682
694.3463
694.3463
0.199915 0.346262 0.0
318.6787
364.367
466.298
584.771
591.6844
599.6712
0.199915 0.346262 0.062398
312.3671
369.1276
474.5305
550.9428
601.504
619.5348
0.199915 0.346262 0.124796
303.1981
381.576
488.199
510.4447
608.863
642.7378
0.199915 0.346262 0.187194
304.9717
394.4662
472.5445
492.4038
623.4841
656.6843
0.199915 0.346262 0.249592
322.9098
386.2279
457.7867
484.5409
641.0098
660.5908
0.199915 0.346262 -0.31199
353.8074
353.8074
469.6829
469.6829
654.7673
654.7673
0.199915 0.461683 0.0
378.0103
415.5944
512.3849
540.1962
592.2217
641.7445
0.199915 0.461683 0.062398
365.2248
422.0217
508.0511
532.989
606.8204
644.2272
0.199915 0.461683 0.124796
343.1842
430.5043
481.9437
540.5001
627.5876
653.2513
0.199915 0.461683 0.187194
328.7182
415.154
476.7849
541.9951
645.6966
665.3822
0.199915 0.461683 0.249592
330.1169
380.3069
494.5273
532.2764
661.3367
672.4538
0.199915 0.461683 -0.31199
348.8448
348.8448
515.0957
515.0957
671.06
671.06
0.199915 0.577104 0.0
410.443
429.5491
509.4302
537.8968
587.3238
655.2053
0.199915 0.577104 0.062398
391.69
442.884
485.1127
553.5789
597.6484
657.1474
0.199915 0.577104 0.124796
364.0031
447.1951
462.0452
564.9917
621.0746
663.5969
0.199915 0.577104 0.187194
342.5375
408.1121
484.1516
562.5313
645.855
672.416
0.199915 0.577104 0.249592
335.6054
372.6282
507.942
549.8312
665.0906
677.899
0.199915 0.577104 -0.31199
346.493
346.493
530.7318
530.7318
675.9387
675.9387
0.299872 0.519393 0.0
430.0617
488.7555
490.6794
543.1047
573.8148
647.3713
0.299872 0.519393 0.062398
414.0757
466.3879
498.9187
557.27
589.0303
645.2751
0.299872 0.519393 0.124796
383.0513
429.5475
511.8397
582.0918
615.6793
640.9029
0.299872 0.519393 0.187194
355.2137
391.8318
530.3225
595.2405
638.2326
641.6072
0.299872 0.519393 0.249592
339.8891
360.5339
551.5458
588.7004
650.2941
651.9746
0.299872 0.519393 -0.31199
341.7498
341.7498
572.1275
572.1275
655.6611
655.6611
P	=	3799.97	V	=	87.20687	E	=	-655.08611125
0.0 0.0 0.0
0.0
0.0
0.0
366.2138
366.2138
727.2465
0.0 0.0 0.062396
56.3711
56.3711
130.9911
361.5898
361.5898
720.6621
0.0 0.0 0.124792
110.7487
110.7487
256.5152
347.6044
347.6044
700.8539
0.0 0.0 0.187188
161.9729
161.9729
324.273
324.273
371.4181
667.3878
0.0 0.0 0.249584
209.704
209.704
292.3749
292.3749
471.4741
619.064
0.0 0.0 -0.31198
253.5667
253.5667
253.5667
253.5667
554.164
554.164
0.0 0.115421 0.0
104.3397
111.3608
234.2612
383.7295
417.3125
715.2605
0.0 0.115421 0.062396
125.5263
132.3002
259.1211
379.5094
412.522
709.4595
0.0 0.115421 0.124792
159.1253
179.1742
325.8034
366.7236
398.2319
692.0275
0.0 0.115421 0.187188
199.7698
223.7004
345.3521
374.5068
410.5233
662.6103
0.0 0.115421 0.249584
241.2365
266.174
316.1283
343.4345
492.6132
620.1986
0.0 0.115421 -0.31198
280.7201
280.7201
306.5589
306.5589
563.5569
563.5569
0.0 0.230841 0.0
201.5028
204.5144
422.4417
425.3201
520.6189
681.0669
0.0 0.230841 0.062396
212.6519
213.3659
418.9185
437.4981
513.8458
678.8757
0.0 0.230841 0.124792
236.7118
242.4904
408.2207
467.9229
496.1823
671.6411
0.0 0.230841 0.187188
268.1271
283.5962
390.2649
459.261
517.6544
657.7042
0.0 0.230841 0.249584
302.2452
329.5918
365.5827
420.7085
562.5737
635.2147
0.0 0.230841 -0.31198
335.566
335.566
376.32
376.32
603.1777
603.1777
0.0 0.346262 0.0
267.0361
285.948
459.8646
548.9937
612.3118
630.7719
0.0 0.346262 0.062396
274.2495
288.1961
456.683
554.6468
590.0475
649.2698
0.0 0.346262 0.124792
293.8826
297.9471
447.0894
538.5163
589.7891
667.0324
0.0 0.346262 0.187188
319.8456
321.3683
431.0922
495.6361
616.2016
675.8443
0.0 0.346262 0.249584
352.01
354.5946
409.0894
447.4237
642.765
674.5527
0.0 0.346262 -0.31198
382.1293
382.1293
398.7988
398.7988
663.1474
663.1474
0.0 0.461683 0.0
298.1313
352.417
484.1446
577.3366
610.9518
665.7302
0.0 0.461683 0.062396
304.6282
349.071
480.9151
561.1317
622.0001
674.6695
0.0 0.461683 0.124792
322.6927
344.2506
471.306
527.2531
644.8283
691.2938
0.0 0.461683 0.187188
347.8509
348.7295
455.5485
485.7766
669.9968
704.3259
0.0 0.461683 0.249584
366.2514
378.3944
434.0815
441.2782
691.145
709.2316
0.0 0.461683 -0.31198
399.1889
399.1889
407.7914
407.7914
704.7377
704.7377
0.0 -0.577103 0.0
306.5874
382.7807
492.3138
549.6
628.9504
681.6438
0.0 -0.577103 0.062396
312.8623
376.6996
488.9988
538.9924
638.4467
688.4326
0.0 -0.577103 0.124792
330.4738
365.1554
479.1954
511.9414
660.8769
702.7151
0.0 -0.577103 0.187188
356.1883
360.4562
463.2506
475.4354
685.6775
715.3257
0.0 -0.577103 0.249584
370.9616
385.7857
435.1006
441.653
705.7621
721.0384
0.0 -0.577103 -0.31198
397.6658
397.6658
415.2586
415.2586
717.9072
717.9072
0.099957 0.173131 0.0
176.6588
198.4552
357.3252
434.3943
484.114
692.118
0.099957 0.173131 0.062396
189.2292
207.3095
370.2388
433.6469
478.1738
688.3962
0.099957 0.173131 0.124792
221.1398
230.5807
391.7271
442.7831
460.7666
677.0184
0.099957 0.173131 0.187188
261.665
262.1363
386.327
433.3057
485.1065
657.2272
0.099957 0.173131 0.249584
294.666
303.9072
366.7679
398.553
538.6114
627.798
0.099957 0.173131 -0.31198
321.3917
321.3917
363.8385
363.8385
587.8939
587.8939
0.099957 0.288552 0.0
258.5144
280.3686
435.9684
528.3227
569.5112
649.4552
0.099957 0.288552 0.062396
259.4752
288.3981
439.8218
530.588
559.4278
654.008
0.099957 0.288552 0.124792
268.6789
308.1307
443.1429
519.0702
557.1171
660.7773
0.099957 0.288552 0.187188
291.4574
333.939
435.8561
482.9833
581.8387
661.9156
0.099957 0.288552 0.249584
325.1745
358.9254
419.0815
443.9403
611.4645
654.2097
0.099957 0.288552 -0.31198
358.6153
358.6153
415.5071
415.5071
636.9531
636.9531
0.099957 0.403972 0.0
328.1218
331.2692
483.9657
589.8211
595.8604
640.3597
0.099957 0.403972 0.062396
319.7606
342.0867
483.526
567.6435
606.7337
653.0154
0.099957 0.403972 0.124792
313.637
360.1248
476.7981
534.2337
624.6184
672.2241
0.099957 0.403972 0.187188
318.3165
382.7849
456.6066
502.4312
647.376
685.3391
0.099957 0.403972 0.249584
337.9197
395.9784
435.0482
475.5214
668.5667
689.2336
0.099957 0.403972 -0.31198
369.3279
369.3279
450.3065
450.3065
683.3478
683.3478
0.099957 0.519393 0.0
347.4887
383.276
507.4662
549.5902
617.5169
673.6476
0.099957 0.519393 0.062396
346.9296
382.6575
499.69
543.5884
627.5845
679.6271
0.099957 0.519393 0.124792
341.1982
390.7452
476.6798
530.8069
650.2299
692.7723
0.099957 0.519393 0.187188
336.9347
409.9932
444.2536
513.5997
674.9131
704.8167
0.099957 0.519393 0.249584
345.4858
402.6806
440.3287
491.9066
694.9781
710.3562
0.099957 0.519393 -0.31198
369.2633
369.2633
466.6389
466.6389
707.171
707.171
0.199915 0.346262 0.0
323.7957
370.4869
474.1094
594.9239
602.3327
610.9578
0.199915 0.346262 0.062396
317.4549
375.3048
482.4386
560.5399
612.7885
630.6579
0.199915 0.346262 0.124792
308.2543
387.9063
496.2965
519.273
620.2035
654.4053
0.199915 0.346262 0.187188
310.1212
400.9382
480.7307
500.5927
635.0282
668.7106
0.199915 0.346262 0.249584
328.3602
392.5867
465.6733
492.66
652.8561
672.7591
0.199915 0.346262 -0.31198
359.7283
359.7283
477.6418
477.6418
666.8605
666.8605
0.199915 0.461683 0.0
384.0767
422.7487
521.0027
549.5739
602.6115
653.6831
0.199915 0.461683 0.062396
371.1651
429.232
516.6502
542.1642
617.5841
656.1537
0.199915 0.461683 0.124792
348.9022
437.7377
490.2783
549.7249
638.9225
665.2267
0.199915 0.461683 0.187188
334.3297
422.1233
485.0871
551.2819
657.4666
677.559
0.199915 0.461683 0.249584
335.8283
386.8024
503.0961
541.4435
673.4442
684.7906
0.199915 0.461683 -0.31198
354.8729
354.8729
524.0004
524.0004
683.376
683.376
0.199915 0.577103 0.0
417.0789
437.0447
518.0824
546.9625
597.6445
667.3302
0.199915 0.577103 0.062396
398.111
450.5632
493.2713
563.0687
608.1532
669.2804
0.199915 0.577103 0.124792
370.0754
454.731
470.0641
574.8207
632.0498
675.8075
0.199915 0.577103 0.187188
348.4032
415.0775
492.559
572.3811
657.3919
684.7775
0.199915 0.577103 0.249584
341.4663
379.0905
516.7983
559.474
677.1123
690.34
0.199915 0.577103 -0.31198
352.5648
352.5648
540.0259
540.0259
688.2741
688.2741
0.299872 0.519393 0.0
437.0522
497.2725
498.9142
552.2954
583.6268
659.3083
0.299872 0.519393 0.062396
420.8486
474.1751
507.6424
566.749
599.1809
657.1432
0.299872 0.519393 0.124792
389.432
436.741
520.7993
592.1152
626.4612
652.6235
0.299872 0.519393 0.187188
361.2864
398.5056
539.6225
605.6528
649.5711
653.244
0.299872 0.519393 0.249584
345.8267
366.7977
561.2749
599.115
662.0199
663.6615
0.299872 0.519393 -0.31198
347.7544
347.7544
582.2653
582.2653
667.4614
667.4614
P	=	4000.05	V	=	86.13032	E	=	-655.05757267
0.0 0.0 0.0
-0.0
-0.0
0.0
372.0655
372.0655
740.7331
0.0 0.0 0.062396
57.4046
57.4046
133.3399
367.3929
367.3929
733.9776
0.0 0.0 0.124791
112.6975
112.6975
261.0382
353.2307
353.2307
713.6566
0.0 0.0 0.187187
164.6904
164.6904
329.541
329.541
377.8508
679.3537
0.0 0.0 0.249582
213.1081
213.1081
297.1024
297.1024
479.5645
629.9239
0.0 0.0 -0.311978
257.6449
257.6449
257.6449
257.6449
563.7202
563.7202
0.0 0.11542 0.0
106.0562
113.1069
238.2953
389.8986
423.971
728.4481
0.0 0.11542 0.062396
127.5393
134.4437
263.6802
385.6233
419.1216
722.5012
0.0 0.11542 0.124791
161.7223
182.0245
331.6139
372.6535
404.6276
704.6332
0.0 0.11542 0.187187
203.011
227.2001
350.9392
380.484
417.7844
674.5067
0.0 0.11542 0.249582
245.1113
270.2844
321.2204
348.8405
501.2284
631.1577
0.0 0.11542 -0.311978
285.2201
285.2201
311.3084
311.3084
573.4095
573.4095
0.0 0.23084 0.0
204.7905
207.7953
429.2829
432.6522
529.0149
693.3965
0.0 0.23084 0.062396
216.1224
216.7834
425.6925
445.0754
522.1486
691.1531
0.0 0.23084 0.124791
240.493
246.4081
414.7971
475.9332
504.3637
683.7495
0.0 0.23084 0.187187
272.4041
288.0616
396.5256
466.4858
526.8537
669.4986
0.0 0.23084 0.249582
307.066
334.6564
371.4285
427.2203
572.5525
646.5355
0.0 0.23084 -0.311978
340.9222
340.9222
382.0713
382.0713
613.8813
613.8813
0.0 0.346261 0.0
271.4116
290.5549
467.3323
558.3238
622.5631
641.8464
0.0 0.346261 0.062396
278.7214
292.8934
464.0776
563.9498
600.1572
660.5949
0.0 0.346261 0.124791
298.6288
302.8782
454.2794
547.2642
600.1801
678.7497
0.0 0.346261 0.187187
325.1028
326.5201
437.9794
503.6294
627.0528
687.7728
0.0 0.346261 0.249582
357.6301
360.299
415.604
454.561
654.0895
686.4654
0.0 0.346261 -0.311978
388.2162
388.2162
405.1356
405.1356
674.843
674.843
0.0 0.461681 0.0
303.0757
358.0395
492.0233
587.12
621.1738
677.3172
0.0 0.461681 0.062396
309.6562
354.7386
488.7225
570.5654
632.5116
686.4511
0.0 0.461681 0.124791
327.959
350.0139
478.9108
536.0609
655.849
703.4559
0.0 0.461681 0.187187
353.7311
354.3524
462.8466
493.84
681.5747
716.7811
0.0 0.461681 0.249582
372.3586
384.442
440.9994
448.5494
703.2079
721.77
0.0 0.461681 -0.311978
405.7614
405.7614
414.2832
414.2832
717.1355
717.1355
0.0 -0.577101 0.0
311.6902
388.8784
500.3352
558.7418
639.4256
693.6824
0.0 -0.577101 0.062396
318.0461
382.8107
496.9514
547.988
649.1073
700.6139
0.0 -0.577101 0.124791
335.8863
371.2814
486.9479
520.5277
672.0152
715.2058
0.0 -0.577101 0.187187
361.9417
366.5949
470.6914
483.4085
697.4038
728.073
0.0 -0.577101 0.249582
377.2197
391.9515
442.3617
448.7008
718.0203
733.8461
0.0 -0.577101 -0.311978
404.2988
404.2988
421.8686
421.8686
730.5435
730.5435
0.099957 0.17313 0.0
179.5502
201.5968
363.339
441.6437
491.8322
704.7249
0.099957 0.17313 0.062396
192.3117
210.6008
376.4573
440.9593
485.8002
700.9151
0.099957 0.17313 0.124791
224.6771
234.2555
398.0883
450.5797
468.0991
689.27
0.099957 0.17313 0.187187
265.8362
266.2127
392.511
440.1295
493.7608
669.0299
0.099957 0.17313 0.249582
299.3547
308.5477
372.6097
404.7187
548.176
638.9821
0.099957 0.17313 -0.311978
326.4549
326.4549
369.4386
369.4386
598.3196
598.3196
0.099957 0.288551 0.0
262.7018
284.879
442.978
537.427
578.8671
660.9916
0.099957 0.288551 0.062396
263.7008
293.0323
446.869
539.6249
568.779
665.6117
0.099957 0.288551 0.124791
273.0624
313.0684
450.2028
527.396
567.0161
672.5017
0.099957 0.288551 0.187187
296.1314
339.2672
442.7832
490.6522
592.2012
673.6631
0.099957 0.288551 0.249582
330.2663
364.6038
425.7297
450.9595
622.321
665.8104
0.099957 0.288551 -0.311978
364.1908
364.1908
422.1114
422.1114
648.243
648.243
0.099957 0.403971 0.0
333.4947
336.5709
491.7228
599.7432
606.0816
651.4148
0.099957 0.403971 0.062396
324.9477
347.6669
491.2627
577.0749
617.2821
664.3016
0.099957 0.403971 0.124791
318.7968
365.9966
484.3996
543.0455
635.5355
683.9328
0.099957 0.403971 0.187187
323.5591
388.9757
463.8802
510.6647
658.7253
697.3596
0.099957 0.403971 0.249582
343.388
402.2751
442.0686
483.2559
680.3174
701.3618
0.099957 0.403971 -0.311978
375.2032
375.2032
457.6077
457.6077
695.3758
695.3758
0.099957 0.519391 0.0
353.2393
389.3787
515.6511
558.732
627.8036
685.5307
0.099957 0.519391 0.062396
352.6089
388.8859
507.7284
552.6542
638.0777
691.6172
0.099957 0.519391 0.124791
346.797
397.2096
484.3421
539.6631
661.2046
705.0193
0.099957 0.519391 0.187187
342.5283
416.7174
451.4233
522.1139
686.4594
717.3021
0.099957 0.519391 0.249582
351.1778
409.1783
447.5259
499.9932
707.0377
722.916
0.099957 0.519391 -0.311978
375.263
375.263
474.2674
474.2674
719.5857
719.5857
0.199914 0.346261 0.0
328.9875
376.4851
481.6381
604.543
612.7071
621.8936
0.199914 0.346261 0.062396
322.5962
381.3615
490.0895
569.7348
623.7671
641.3829
0.199914 0.346261 0.124791
313.321
394.1164
504.1706
527.7121
631.3226
665.6688
0.199914 0.346261 0.187187
315.2055
407.2802
488.5203
508.5792
646.3765
680.3402
0.199914 0.346261 0.249582
333.6371
398.7308
473.2362
500.5749
664.4544
684.5543
0.199914 0.346261 -0.311978
365.3998
365.3998
485.3599
485.3599
678.6321
678.6321
0.199914 0.461681 0.0
390.1874
429.6938
529.3094
558.7157
612.5297
665.2999
0.199914 0.461681 0.062396
377.1295
436.2445
524.9562
551.0449
627.9079
667.7617
0.199914 0.461681 0.124791
354.6099
444.776
498.2688
558.6596
649.8597
676.8606
0.199914 0.461681 0.187187
339.8546
428.8353
493.0385
560.2971
668.8823
689.3591
0.199914 0.461681 0.249582
341.3451
392.9914
511.3344
550.332
685.2075
696.7501
0.199914 0.461681 -0.311978
360.6191
360.6191
532.599
532.599
695.3338
695.3338
0.199914 0.577101 0.0
423.7141
444.2807
526.5397
555.7089
607.5487
679.1471
0.199914 0.577101 0.062396
404.4993
457.9984
501.2137
572.2474
618.2302
681.0984
0.199914 0.577101 0.124791
376.0966
462.0212
477.7924
584.3391
642.587
687.6813
0.199914 0.577101 0.187187
354.1483
421.751
500.6297
581.9235
668.5079
696.7841
0.199914 0.577101 0.249582
347.107
385.2325
525.2965
568.7936
688.7472
702.4243
0.199914 0.577101 -0.311978
358.3386
358.3386
548.9714
548.9714
700.2477
700.2477
0.29987 0.519391 0.0
444.0072
505.5701
506.9871
561.2108
593.1114
670.9762
0.29987 0.519391 0.062396
427.5747
481.7938
516.0929
575.9403
608.985
668.7397
0.29987 0.519391 0.124791
395.724
443.7299
529.3807
601.8416
636.8686
664.0587
0.29987 0.519391 0.187187
367.2003
404.9216
548.4699
615.7755
660.5448
664.5757
0.29987 0.519391 0.249582
351.5352
372.7739
570.548
609.2005
673.4538
675.0254
0.29987 0.519391 -0.311978
353.4827
353.4827
592.0029
592.0029
678.9721
678.9721
P	=	4999.97	V	=	81.46682	E	=	-654.91551137
0.0 0.0 0.0
-0.0
0.0
0.0
399.5467
399.5467
803.5817
0.0 0.0 0.062393
61.4421
61.4421
143.6589
394.5922
394.5922
795.9302
0.0 0.0 0.124786
120.675
120.675
281.3231
379.5135
379.5135
773.0759
0.0 0.0 0.187179
176.4828
176.4828
354.143
354.143
407.3846
734.9379
0.0 0.0 0.249572
228.5995
228.5995
319.2288
319.2288
517.3186
680.6251
0.0 0.0 -0.311964
276.6495
276.6495
276.6495
276.6495
608.5156
608.5156
0.0 0.115424 0.0
113.7734
121.0898
257.0772
418.648
455.0421
789.8448
0.0 0.115424 0.062393
136.5223
143.8908
284.6102
414.085
449.8791
783.1508
0.0 0.115424 0.124786
173.1257
194.596
357.9974
400.207
434.3758
763.1568
0.0 0.115424 0.187179
217.4442
242.9496
376.887
408.337
451.0011
729.7718
0.0 0.115424 0.249572
262.7601
289.2211
344.8696
374.0977
541.1503
682.2153
0.0 0.115424 -0.311964
306.0229
306.0229
333.4744
333.4744
619.3494
619.3494
0.0 0.230847 0.0
219.4507
222.7999
461.0055
466.8898
568.1145
750.7168
0.0 0.230847 0.062393
231.5993
232.3773
457.1171
480.2689
560.7737
748.2341
0.0 0.230847 0.124786
257.6952
264.009
445.3288
512.9432
542.2446
740.0524
0.0 0.230847 0.187179
291.8805
308.4856
425.5846
500.3512
568.8824
724.3373
0.0 0.230847 0.249572
329.129
358.2563
398.4935
457.8321
618.401
699.0975
0.0 0.230847 -0.311964
365.5936
365.5936
409.1204
409.1204
663.3753
663.3753
0.0 0.346271 0.0
291.7906
311.0654
502.176
602.3074
670.4701
693.3211
0.0 0.346271 0.062393
299.5392
313.845
498.6163
607.7581
647.1322
713.4207
0.0 0.346271 0.124786
320.6894
325.0436
487.931
588.4596
648.1846
733.4597
0.0 0.346271 0.187179
349.1245
350.4257
470.2333
541.3169
677.0876
743.4378
0.0 0.346271 0.249572
383.7143
386.8786
446.0462
488.3116
706.3814
741.9215
0.0 0.346271 -0.311964
416.5501
416.5501
435.032
435.032
729.0679
729.0679
0.0 0.461695 0.0
326.8212
383.3096
529.0361
632.5588
670.0306
731.5568
0.0 0.461695 0.062393
333.7591
380.2677
525.4278
614.5268
682.4092
741.5989
0.0 0.461695 0.124786
353.0909
376.1723
514.726
577.2328
707.7029
760.3878
0.0 0.461695 0.187179
380.82
381.0566
497.2764
531.7193
735.7182
775.0795
0.0 0.461695 0.249572
400.9856
413.0676
473.67
482.9109
759.5099
780.4167
0.0 0.461695 -0.311964
436.8607
436.8607
444.9634
444.9634
775.0463
775.0463
0.0 -0.577119 0.0
336.5888
416.5144
538.1053
601.1088
689.8145
750.0625
0.0 -0.577119 0.062393
343.2736
410.6016
534.4134
589.6744
700.152
757.6586
0.0 -0.577119 0.124786
362.065
399.3904
523.5171
560.3773
724.8609
773.694
0.0 -0.577119 0.187179
389.5895
395.1592
505.8712
520.6228
752.6359
787.7729
0.0 -0.577119 0.249572
406.7545
421.4244
476.5654
482.1255
775.5519
793.855
0.0 -0.577119 -0.311964
435.7436
435.7436
453.3313
453.3313
789.779
789.779
0.09996 0.173136 0.0
192.4603
215.8292
391.533
475.0823
527.8516
763.3546
0.09996 0.173136 0.062393
206.0546
225.437
405.4533
474.5975
521.3957
759.119
0.09996 0.173136 0.124786
240.5709
250.73
427.64
486.1437
502.3629
746.2135
0.09996 0.173136 0.187179
284.6044
284.8974
421.1237
472.1199
533.2539
723.8965
0.09996 0.173136 0.249572
320.665
330.2036
399.5529
433.7366
592.1514
690.9489
0.09996 0.173136 -0.311964
349.8017
349.8017
395.6601
395.6601
646.5962
646.5962
0.09996 0.288559 0.0
281.2974
305.3717
475.9115
579.7298
622.6077
714.631
0.09996 0.288559 0.062393
282.5439
314.0303
479.8825
581.6635
612.3553
719.6514
0.09996 0.288559 0.124786
292.8164
335.3935
483.1338
566.6704
612.4427
727.2123
0.09996 0.288559 0.187179
317.5744
363.4104
475.0488
526.9014
639.6808
728.4678
0.09996 0.288559 0.249572
354.0331
390.5444
456.7981
484.0046
672.2117
719.7491
0.09996 0.288559 -0.311964
390.2181
390.2181
452.9238
452.9238
700.4324
700.4324
0.09996 0.403983 0.0
358.4122
360.2397
528.1707
646.7025
653.6308
702.9729
0.09996 0.403983 0.062393
348.5154
373.1529
527.5686
621.4261
666.5858
717.0395
0.09996 0.403983 0.124786
342.2981
392.9173
520.117
584.4878
686.3714
738.7522
0.09996 0.403983 0.187179
347.7384
417.4085
498.374
549.2818
711.3643
753.6242
0.09996 0.403983 0.249572
369.0354
431.5295
475.3529
519.393
734.7833
757.9699
0.09996 0.403983 -0.311964
402.9888
402.9888
491.7174
491.7174
751.2861
751.2861
0.09996 0.519407 0.0
380.4745
416.969
554.0748
601.1755
677.0557
740.9392
0.09996 0.519407 0.062393
379.3326
417.3329
545.4328
594.8371
688.1136
747.5677
0.09996 0.519407 0.124786
372.8634
427.2773
520.3355
580.982
713.134
762.2397
0.09996 0.519407 0.187179
368.691
448.1859
485.3578
561.9159
740.7147
775.6665
0.09996 0.519407 0.249572
378.1343
439.9637
481.4587
537.869
763.4685
781.6138
0.09996 0.519407 -0.311964
403.854
403.854
510.0856
510.0856
777.5968
777.5968
0.19992 0.346271 0.0
352.0799
403.6007
517.3633
650.0902
661.0177
672.3116
0.19992 0.346271 0.062393
345.5444
408.7333
526.2062
613.0539
674.3572
691.784
0.19992 0.346271 0.124786
336.1465
422.1838
541.0022
567.7997
682.4883
718.7093
0.19992 0.346271 0.187179
338.4926
436.0857
525.7869
545.6996
698.5368
735.0066
0.19992 0.346271 0.249572
358.2898
427.3776
508.8472
537.2776
717.8615
739.6511
0.19992 0.346271 -0.311964
392.1809
392.1809
521.2276
521.2276
733.1701
733.1701
0.19992 0.461695 0.0
417.7038
461.5715
568.4133
601.2832
659.539
718.9801
0.19992 0.461695 0.062393
404.1122
468.4079
563.8867
592.7295
676.658
721.5116
0.19992 0.461695 0.124786
380.6479
477.0796
536.1334
600.4032
701.172
731.0657
0.19992 0.461695 0.187179
365.4084
460.2112
530.5787
602.2065
722.0428
744.531
0.19992 0.461695 0.249572
367.2991
422.3946
549.8791
591.5969
739.78
752.5228
0.19992 0.461695 -0.311964
387.9597
387.9597
572.6067
572.6067
750.8697
750.8697
0.19992 0.577119 0.0
453.9103
477.8375
565.7968
596.5169
654.6048
733.7893
0.19992 0.577119 0.062393
433.7372
492.5202
538.1431
615.0583
666.0395
735.8269
0.19992 0.577119 0.124786
403.8698
496.1081
513.965
628.6777
692.3565
742.8347
0.19992 0.577119 0.187179
380.9893
453.2545
538.5461
626.2757
720.6664
752.6295
0.19992 0.577119 0.249572
373.8318
414.4878
565.0889
612.0793
743.0086
758.5927
0.19992 0.577119 -0.311964
385.9031
385.9031
590.6318
590.6318
755.9082
755.9082
0.29988 0.519407 0.0
475.7935
543.9707
544.4247
602.8969
637.561
724.7096
0.29988 0.519407 0.062393
458.407
517.0933
555.5692
618.8551
654.9551
722.1864
0.29988 0.519407 0.124786
424.7983
476.3686
569.8916
647.0969
685.6684
716.8518
0.29988 0.519407 0.187179
394.8684
435.2396
590.3511
662.6413
711.8174
716.9643
0.29988 0.519407 0.249572
378.5817
401.2704
614.1324
655.8731
726.2665
727.8058
0.29988 0.519407 -0.311964
380.8266
380.8266
637.3232
637.3232
732.186
732.186
P	=	5999.99	V	=	77.68725	E	=	-654.77459115
0.0 0.0 0.0
-0.0
0.0
0.0
422.9222
422.9222
859.2506
0.0 0.0 0.062384
64.917
64.917
152.8769
417.7292
417.7292
850.7892
0.0 0.0 0.124767
127.5107
127.5107
299.3014
401.8698
401.8698
825.6151
0.0 0.0 0.187151
186.5372
186.5372
375.0578
375.0578
433.3332
783.9155
0.0 0.0 0.249534
241.7621
241.7621
338.0202
338.0202
550.308
725.0807
0.0 0.0 -0.311918
292.7799
292.7799
292.78
292.78
647.6446
647.6446
0.0 0.115431 0.0
120.6338
127.8792
273.6644
443.2517
481.6853
844.1786
0.0 0.115431 0.062384
144.1646
152.2999
303.0905
438.4355
476.2393
836.8334
0.0 0.115431 0.124767
182.8284
205.603
381.2898
423.7611
459.8531
814.9369
0.0 0.115431 0.187151
229.7227
256.5582
399.041
432.1621
480.2291
778.5421
0.0 0.115431 0.249534
277.7762
305.5057
365.0322
395.7356
576.1052
727.0672
0.0 0.115431 -0.311918
323.7362
323.7362
352.4987
352.4987
659.5566
659.5566
0.0 0.230863 0.0
232.298
235.6371
488.403
497.0595
602.1297
801.3183
0.0 0.230863 0.062384
245.276
245.7004
484.2375
511.2065
594.363
798.6764
0.0 0.230863 0.124767
272.3654
279.5988
471.6306
545.0753
575.4893
789.8616
0.0 0.230863 0.187151
308.4947
326.3888
450.5644
529.5926
605.9095
772.7762
0.0 0.230863 0.249534
347.9843
378.783
421.7141
484.3507
658.6856
745.3639
0.0 0.230863 -0.311918
386.7215
386.7215
432.5936
432.5936
706.8383
706.8383
0.0 0.346294 0.0
309.2464
328.7837
532.4384
640.9543
712.6965
738.5875
0.0 0.346294 0.062384
317.3621
332.0897
528.5937
646.0268
688.6389
759.9582
0.0 0.346294 0.124767
339.5698
344.5458
517.0881
624.3564
690.5739
781.6857
0.0 0.346294 0.187151
370.2531
370.9093
498.1202
574.2154
721.151
792.4779
0.0 0.346294 0.249534
406.1172
410.1391
472.3118
517.7842
752.3891
790.727
0.0 0.346294 -0.311918
440.9443
440.9443
461.1365
461.1365
776.7646
776.7646
0.0 0.461726 0.0
347.082
405.0064
561.2964
672.3018
713.0919
779.5684
0.0 0.461726 0.062384
354.3405
402.3037
557.4097
653.0003
726.3414
790.3703
0.0 0.461726 0.124767
374.5977
398.9557
545.9018
613.2921
753.2635
810.6887
0.0 0.461726 0.187151
403.9813
404.5179
527.1966
564.9117
783.2453
826.5417
0.0 0.461726 0.249534
426.0398
437.7291
501.9955
513.0129
808.9692
832.1148
0.0 0.461726 -0.311918
464.0843
464.0843
471.4851
471.4851
826.0045
826.0045
0.0 -0.577157 0.0
357.7779
440.2526
571.0723
638.0245
734.347
799.978
0.0 -0.577157 0.062384
364.7714
434.56
567.1071
626.0397
745.1621
808.1542
0.0 -0.577157 0.124767
384.4491
423.7773
555.413
595.2231
771.2768
825.4515
0.0 -0.577157 0.187151
413.3295
420.0467
536.5116
553.2311
801.0607
840.5576
0.0 -0.577157 0.249534
432.558
446.8401
506.555
511.1646
826.0444
846.8102
0.0 -0.577157 -0.311918
463.2806
463.2806
480.5722
480.5722
841.9054
841.9054
0.099967 0.173147 0.0
203.8295
228.1549
415.9611
504.4185
558.9249
815.1568
0.099967 0.173147 0.062384
218.2343
238.2669
430.4706
504.1858
552.0659
810.5864
0.099967 0.173147 0.124767
254.5874
264.9286
452.9417
517.5957
531.8342
796.6058
0.099967 0.173147 0.187151
300.7204
301.1264
445.6786
499.655
568.0561
772.3664
0.099967 0.173147 0.249534
338.9031
348.8267
422.7486
458.7956
630.771
736.6797
0.099967 0.173147 -0.311918
369.7108
369.7108
418.3991
418.3991
688.9613
688.9613
0.099967 0.288578 0.0
297.4696
323.1579
504.2836
616.9504
660.9846
761.8997
0.099967 0.288578 0.062384
299.0336
332.2749
508.3033
618.3757
650.7908
767.3082
0.099967 0.288578 0.124767
310.1747
354.8046
511.483
600.7177
652.6445
775.475
0.099967 0.288578 0.187151
336.275
384.3498
502.8429
558.399
681.5782
776.7555
0.099967 0.288578 0.249534
374.5753
412.9249
483.6403
512.7571
716.1586
767.207
0.099967 0.288578 -0.311918
412.5988
412.5988
479.7031
479.7031
746.3466
746.3466
0.099967 0.40401 0.0
379.9079
380.6655
559.8075
687.9025
695.3835
748.609
0.099967 0.40401 0.062384
368.8589
395.2703
559.069
660.2681
710.0122
763.5808
0.099967 0.40401 0.124767
362.7259
416.3437
551.0915
620.7521
731.1214
787.0405
0.099967 0.40401 0.187151
368.7884
442.1562
528.2917
583.0011
757.6784
803.1557
0.099967 0.40401 0.249534
391.3077
456.9547
504.2443
550.846
782.7186
807.7981
0.099967 0.40401 -0.311918
427.0933
427.0933
521.3558
521.3558
800.502
800.502
0.099967 0.519441 0.0
403.8383
440.7782
587.5648
638.2834
720.4521
789.9777
0.099967 0.519441 0.062384
402.2346
442.0068
578.3192
631.7167
732.1082
797.0675
0.099967 0.519441 0.124767
395.3296
453.4046
551.7687
617.0827
758.6553
812.8283
0.099967 0.519441 0.187151
391.3542
475.5463
514.9755
596.6598
788.2431
827.2219
0.099967 0.519441 0.249534
401.5369
466.826
510.9432
570.8872
812.9899
833.3859
0.099967 0.519441 -0.311918
428.7323
428.7323
541.2577
541.2577
828.643
828.643
0.199933 0.346294 0.0
372.1002
427.3138
548.1107
689.8185
703.5342
717.0585
0.199933 0.346294 0.062384
365.5525
432.6789
557.2859
650.9541
719.2169
735.9848
0.199933 0.346294 0.124767
356.1818
446.7267
572.7313
602.8571
727.778
765.1912
0.199933 0.346294 0.187151
358.8767
461.1842
558.3425
577.7316
744.6518
782.9384
0.199933 0.346294 0.249534
379.7084
452.2014
539.8972
569.0104
765.0216
788.055
0.199933 0.346294 -0.311918
415.3631
415.3631
552.3485
552.3485
781.2175
781.2175
0.199933 0.461726 0.0
441.6273
489.2722
602.3587
638.7021
700.7048
766.4657
0.199933 0.461726 0.062384
427.6298
496.394
597.8323
629.194
719.3024
769.0333
0.199933 0.461726 0.124767
403.4266
505.2652
569.2419
636.704
746.0828
778.8825
0.199933 0.461726 0.187151
387.7387
487.6238
563.2821
638.6375
768.708
793.0822
0.199933 0.461726 0.249534
389.8732
447.9818
583.4283
627.4834
787.7855
801.5922
0.199933 0.461726 -0.311918
411.6898
411.6898
607.4146
607.4146
799.7512
799.7512
0.199933 0.577157 0.0
480.2532
506.8785
600.2566
632.1153
695.89
782.0273
0.199933 0.577157 0.062384
459.2197
522.4841
570.5498
652.4221
707.8938
784.1415
0.199933 0.577157 0.124767
428.1138
526.0199
545.3821
667.3699
735.8123
791.5141
0.199933 0.577157 0.187151
404.3857
480.8312
571.4917
664.9988
766.2334
801.89
0.199933 0.577157 0.249534
397.049
439.9808
599.7223
649.8736
790.5522
808.0802
0.199933 0.577157 -0.311918
409.8372
409.8372
626.9658
626.9658
804.8372
804.8372
0.2999 0.519441 0.0
503.669
577.3705
577.3798
639.264
676.4786
772.0117
0.2999 0.519441 0.062384
485.486
548.1072
589.9526
656.2663
695.1558
769.2393
0.2999 0.519441 0.124767
450.3498
505.0495
605.0665
686.5388
728.3111
763.343
0.2999 0.519441 0.187151
419.0925
461.7743
626.7113
703.5569
756.6627
763.0826
0.2999 0.519441 0.249534
402.1115
426.0614
652.0881
696.7059
772.6874
774.0566
0.2999 0.519441 -0.311918
404.5412
404.5412
676.9294
676.9294
778.8987
778.8987
P	=	6999.95	V	=	74.52685	E	=	-654.63522809
0.0 0.0 0.0
-0.0
0.0
0.0
443.6673
443.6673
909.588
0.0 0.0 0.062373
67.7332
67.7332
161.1587
438.2858
438.2858
900.381
0.0 0.0 0.124747
133.1534
133.1534
315.5509
421.7828
421.7828
873.1078
0.0 0.0 0.18712
195.046
195.046
393.7181
393.7181
456.9343
828.2604
0.0 0.0 0.249493
253.1738
253.1738
354.7499
354.7499
580.4136
765.4735
0.0 0.0 -0.311866
307.0117
307.0117
307.0117
307.0117
683.3243
683.3243
0.0 0.11544 0.0
126.7943
133.7913
288.328
465.0669
505.2047
893.2584
0.0 0.11544 0.062373
150.7754
159.752
319.5154
460.0429
499.5523
885.3199
0.0 0.11544 0.124747
191.1771
215.2843
402.1861
444.6938
482.4721
861.7234
0.0 0.11544 0.18712
240.3315
268.5153
418.737
453.3769
506.6627
822.7
0.0 0.11544 0.249493
290.8736
319.8414
382.9098
414.9648
607.9102
767.8183
0.0 0.11544 -0.311866
339.3372
339.3372
369.3248
369.3248
696.1817
696.1817
0.0 0.23088 0.0
243.8242
246.9463
512.682
523.8977
632.113
846.9319
0.0 0.23088 0.062373
257.4525
257.4748
508.2809
538.8224
624.0363
844.1557
0.0 0.23088 0.124747
285.3192
293.4778
494.96
573.8106
605.1063
834.8186
0.0 0.23088 0.18712
323.1463
342.4093
472.7038
555.6839
639.208
816.5873
0.0 0.23088 0.249493
364.591
397.1788
442.2433
508.0255
695.0691
787.2797
0.0 0.23088 -0.311866
405.3483
405.3483
453.5853
453.5853
746.198
746.198
0.0 0.346321 0.0
324.9074
344.6875
559.2725
675.5462
750.2643
779.3469
0.0 0.346321 0.062373
333.3729
348.4223
555.1818
680.3051
725.7528
801.7828
0.0 0.346321 0.124747
356.5417
361.987
542.9559
656.5406
728.6594
825.0856
0.0 0.346321 0.18712
389.2428
389.2588
522.8505
603.7879
760.8005
836.6568
0.0 0.346321 0.249493
426.0714
431.1474
495.589
544.3639
793.7787
834.6842
0.0 0.346321 -0.311866
462.5842
462.5842
484.7315
484.7315
819.6866
819.6866
0.0 0.461761 0.0
365.5937
424.519
589.9143
708.1113
751.8985
822.6909
0.0 0.461761 0.062373
373.1587
422.1274
585.7814
687.6591
765.9262
834.2298
0.0 0.461761 0.124747
394.2504
419.49
573.5593
645.8027
794.2795
855.9859
0.0 0.461761 0.18712
424.8178
425.9473
553.7494
594.9044
825.959
872.8735
0.0 0.461761 0.249493
448.7571
459.9464
527.1795
540.2814
853.3605
878.5885
0.0 0.461761 -0.311866
488.782
488.782
495.1824
495.1824
871.7471
871.7471
0.0 -0.577201 0.0
377.29
461.6247
600.3192
671.3123
774.616
844.972
0.0 -0.577201 0.062373
384.5783
456.1738
596.1079
658.8275
785.8111
853.6953
0.0 -0.577201 0.124747
405.0511
445.8674
583.7017
626.659
813.0712
872.1443
0.0 -0.577201 0.18712
435.0466
442.6556
563.7051
582.6985
844.5401
888.1216
0.0 -0.577201 0.249493
456.0097
469.8538
533.7164
537.016
871.3186
894.42
0.0 -0.577201 -0.311866
488.2738
488.2738
504.9892
504.9892
888.6732
888.6732
0.099974 0.17316 0.0
214.0298
238.8519
437.7388
530.3623
586.3247
861.8785
0.099974 0.17316 0.062373
229.0908
249.4174
452.8301
530.3912
579.1797
857.0135
0.099974 0.17316 0.124747
267.071
277.294
475.523
545.6514
558.0275
842.1087
0.099974 0.17316 0.18712
314.7721
315.6564
467.4451
524.2232
599.3812
816.2351
0.099974 0.17316 0.249493
354.8413
365.4935
443.2197
481.1739
665.725
778.1715
0.099974 0.17316 -0.311866
387.253
387.253
438.6352
438.6352
727.4146
727.4146
0.099974 0.288601 0.0
311.975
338.771
529.5668
650.0497
695.0711
804.4737
0.099974 0.288601 0.062373
313.7703
348.3168
533.6277
651.0376
685.0902
810.2351
0.099974 0.288601 0.124747
325.6928
371.8932
536.6869
631.1827
688.6834
818.9962
0.099974 0.288601 0.18712
353.104
402.7705
527.4991
586.6745
719.2782
820.3581
0.099974 0.288601 0.249493
393.1
432.6123
507.5225
538.5449
755.7536
810.0665
0.099974 0.288601 -0.311866
432.5677
432.5677
503.5918
503.5918
787.7666
787.7666
0.099974 0.404041 0.0
399.0165
399.1724
587.9071
724.884
732.9986
789.4907
0.099974 0.404041 0.062373
387.1372
415.0873
587.0395
695.2065
749.0815
805.3644
0.099974 0.404041 0.124747
381.1311
437.2934
578.6199
653.3883
771.4333
830.4893
0.099974 0.404041 0.18712
387.8395
464.203
555.0801
613.2588
799.3715
847.7409
0.099974 0.404041 0.249493
411.5198
479.6067
530.2797
578.9216
825.8018
852.6037
0.099974 0.404041 -0.311866
448.884
448.884
547.8142
547.8142
844.7147
844.7147
0.099974 0.519481 0.0
425.1043
462.2149
617.2694
671.7555
759.6818
834.1258
0.099974 0.519481 0.062373
423.0494
464.3017
607.5424
664.9253
771.844
841.659
0.099974 0.519481 0.124747
415.7598
477.0709
579.8541
649.4573
799.6776
858.4223
0.099974 0.519481 0.18712
412.0033
500.239
541.6502
627.7078
830.9528
873.6357
0.099974 0.519481 0.249493
422.8683
491.0836
537.4977
600.3552
857.4013
879.8922
0.099974 0.519481 -0.311866
451.3427
451.3427
569.1458
569.1458
874.4183
874.4183
0.199948 0.346321 0.0
390.0766
448.1641
575.6666
725.2869
741.8425
757.1485
0.199948 0.346321 0.062373
383.4998
453.7406
585.1122
684.9407
759.4628
775.7534
0.199948 0.346321 0.124747
374.187
468.3065
601.0194
634.4684
768.5203
807.0761
0.199948 0.346321 0.18712
377.3161
483.2433
587.8649
606.146
786.1781
826.1422
0.199948 0.346321 0.249493
399.1738
474.3273
567.8166
597.1034
807.4474
831.6322
0.199948 0.346321 -0.311866
436.3526
436.3526
579.992
579.992
824.4256
824.4256
0.199948 0.461761 0.0
463.1684
514.049
632.7085
672.472
737.7534
809.1355
0.199948 0.461761 0.062373
448.8205
521.4004
628.2385
662.0637
757.7107
811.7679
0.199948 0.461761 0.124747
424.0277
530.362
599.1951
669.1676
786.5403
821.9361
0.199948 0.461761 0.18712
408.0546
512.2076
592.7934
671.0452
810.6898
836.7594
0.199948 0.461761 0.249493
410.5018
471.198
613.4361
659.3454
830.867
845.6358
0.199948 0.461761 -0.311866
433.361
433.361
638.374
638.374
843.5706
843.5706
0.199948 0.577201 0.0
504.0113
533.1175
631.3858
663.7777
733.2737
825.3893
0.199948 0.577201 0.062373
482.2314
549.5725
599.7004
685.8089
745.7605
827.5862
0.199948 0.577201 0.124747
450.1053
552.979
573.771
701.9093
775.0244
835.2991
0.199948 0.577201 0.18712
425.7382
505.8198
601.1525
699.4798
807.1937
846.1407
0.199948 0.577201 0.249493
418.3234
463.2264
630.7246
683.487
833.1457
852.4263
0.199948 0.577201 -0.311866
431.7586
431.7586
659.3362
659.3362
848.6212
848.6212
0.299922 0.519481 0.0
528.8373
607.1651
607.4438
672.0092
711.4867
814.4189
0.299922 0.519481 0.062373
509.9539
576.0487
621.0228
689.9454
731.3403
811.4096
0.299922 0.519481 0.124747
473.5264
530.9705
636.8164
721.9441
766.6841
804.9936
0.299922 0.519481 0.18712
441.2059
485.9151
659.396
740.0464
796.9184
804.4225
0.299922 0.519481 0.249493
423.7096
448.7685
686.0159
732.9976
814.2309
815.4426
0.299922 0.519481 -0.311866
426.3391
426.3391
712.1758
712.1758
820.6411
820.6411
P	=	7999.95	V	=	71.81853	E	=	-654.49735226
0.0 0.0 0.0
-0.0
-0.0
0.0
462.5334
462.5334
955.5567
0.0 0.0 0.06236
70.6241
70.6241
168.7982
457.016
457.016
945.6848
0.0 0.0 0.12472
138.8115
138.8115
330.4348
440.0087
440.0087
916.5017
0.0 0.0 0.18708
203.3306
203.3306
410.8856
410.8856
478.3898
868.7124
0.0 0.0 0.24944
264.0044
264.0044
370.228
370.228
607.6646
802.1846
0.0 0.0 -0.3118
320.2972
320.2972
320.2972
320.2972
715.6345
715.6345
0.0 0.115454 0.0
132.4406
139.2004
301.8461
484.9381
526.5578
938.0455
0.0 0.115454 0.06236
156.91
166.6467
334.6675
479.7523
520.7463
929.5908
0.0 0.115454 0.12472
199.0283
224.2378
421.4266
463.8519
503.1097
904.4703
0.0 0.115454 0.18708
250.2935
279.539
436.8307
472.7976
530.8577
863.0004
0.0 0.115454 0.24944
303.0816
333.045
399.3912
432.6333
636.8345
804.8988
0.0 0.115454 -0.3118
353.7833
353.7833
384.8137
384.8137
729.4323
729.4323
0.0 0.230909 0.0
254.3566
257.3451
534.8656
548.5965
659.4383
888.4852
0.0 0.230909 0.06236
268.2539
268.7124
530.2593
564.1663
651.1137
885.6245
0.0 0.230909 0.12472
297.217
306.2846
516.3109
599.8859
632.414
875.8645
0.0 0.230909 0.18708
336.5992
357.0456
492.9938
579.4977
669.745
856.5777
0.0 0.230909 0.24944
379.8388
413.9068
461.0788
529.6751
728.3163
825.4935
0.0 0.230909 -0.3118
422.4487
422.4487
472.7296
472.7296
782.082
782.082
0.0 0.346363 0.0
339.3651
359.1572
583.8734
707.2894
784.8479
816.4269
0.0 0.346363 0.06236
348.1385
363.357
579.5581
711.5904
759.9525
839.9404
0.0 0.346363 0.12472
372.162
378.0078
566.675
685.9198
763.66
864.709
0.0 0.346363 0.18708
406.1208
406.6256
545.5334
630.8595
797.1085
877.0018
0.0 0.346363 0.24944
444.3946
450.3055
516.9475
568.6918
831.6256
874.8328
0.0 0.346363 -0.3118
482.4479
482.4479
506.2716
506.2716
858.9056
858.9056
0.0 0.461817 0.0
382.7125
442.1899
616.2337
740.6992
787.6264
862.5491
0.0 0.461817 0.06236
390.5603
440.1291
611.8807
719.2839
802.2918
874.6629
0.0 0.461817 0.12472
412.4157
438.2088
599.0151
675.5446
831.8377
897.6077
0.0 0.461817 0.18708
444.0563
445.5026
578.199
622.3753
864.9975
915.3691
0.0 0.461817 0.24944
469.4939
480.433
550.3734
565.2482
893.9396
921.1674
0.0 0.461817 -0.3118
511.3594
511.3594
517.0143
517.0143
913.6091
913.6091
0.0 -0.577272 0.0
395.3406
480.924
627.2535
701.6468
811.7897
886.58
0.0 -0.577272 0.06236
402.9089
475.7403
622.8278
688.7417
823.2384
895.7434
0.0 -0.577272 0.12472
424.1244
465.9453
609.7904
655.3901
851.3715
915.1391
0.0 -0.577272 0.18708
455.1381
463.2542
588.8007
609.6561
884.2815
931.8276
0.0 -0.577272 0.24944
477.4141
491.1163
558.5679
560.8759
912.7132
938.0981
0.0 -0.577272 -0.3118
511.1228
511.1228
527.5286
527.5286
931.5051
931.5051
0.099986 0.173182 0.0
223.3629
248.6828
457.6188
554.2589
611.1854
904.4626
0.099986 0.173182 0.06236
239.1081
259.6676
473.1757
554.5759
603.8024
899.365
0.099986 0.173182 0.12472
278.5761
288.6693
496.0422
571.5578
581.8759
883.6672
0.099986 0.173182 0.18708
327.7077
328.8888
487.3489
546.6658
628.1374
856.2816
0.099986 0.173182 0.24944
369.506
380.61
462.0175
501.648
697.6484
815.9787
0.099986 0.173182 -0.3118
403.3112
403.3112
457.1641
457.1641
762.4352
762.4352
0.099986 0.288636 0.0
325.2106
353.1301
552.5551
680.4505
726.3861
843.2217
0.099986 0.288636 0.06236
327.2952
363.0541
556.6271
680.8523
716.765
849.3442
0.099986 0.288636 0.12472
339.9654
387.5726
559.5876
658.9641
721.9271
858.6979
0.099986 0.288636 0.18708
368.4546
419.6596
549.9716
612.5319
753.8939
860.1415
0.099986 0.288636 0.24944
409.9017
450.6433
529.3447
562.1394
791.9832
849.1631
0.099986 0.288636 -0.3118
450.7446
450.7446
525.4521
525.4521
825.5787
825.5787
0.099986 0.40409 0.0
415.7059
416.8658
613.5895
758.8039
767.2235
827.2743
0.099986 0.40409 0.06236
403.8392
433.262
612.5893
727.1074
784.9503
843.7793
0.099986 0.40409 0.12472
397.9749
456.533
603.7743
683.229
808.434
870.2929
0.099986 0.40409 0.18708
405.2243
484.4582
579.5815
640.9358
837.552
888.5313
0.099986 0.40409 0.24944
429.917
500.4084
554.0622
604.5984
865.1983
893.567
0.099986 0.40409 -0.3118
468.771
468.771
572.013
572.013
885.1261
885.1261
0.099986 0.519545 0.0
444.6174
481.6452
644.5242
702.2585
795.7955
874.9245
0.099986 0.519545 0.06236
442.1126
484.6164
634.3573
695.2424
808.3444
882.812
0.099986 0.519545 0.12472
434.458
498.7409
605.6381
679.0754
837.2236
900.3928
0.099986 0.519545 0.18708
430.8721
522.8922
566.1237
656.1303
869.9608
916.2626
0.099986 0.519545 0.24944
442.3366
513.3322
561.8028
627.3228
897.9661
922.5165
0.099986 0.519545 -0.3118
472.0101
472.0101
594.6628
594.6628
916.2904
916.2904
0.199973 0.346363 0.0
406.474
467.2716
600.6372
757.6887
776.7029
794.2834
0.199973 0.346363 0.06236
399.9232
473.0363
610.2809
715.9898
796.724
812.0014
0.199973 0.346363 0.12472
390.6819
488.0765
626.5708
663.4275
806.1631
845.2681
0.199973 0.346363 0.18708
394.0975
503.4761
614.9068
631.8723
824.3918
865.5424
0.199973 0.346363 0.24944
416.7913
494.5668
593.3397
622.6454
846.3153
871.3777
0.199973 0.346363 -0.3118
455.4099
455.4099
605.2151
605.2151
863.8851
863.8851
0.199973 0.461817 0.0
482.8099
536.6254
660.3541
703.247
771.6976
848.5373
0.199973 0.461817 0.06236
468.18
544.2158
655.9467
692.0571
792.8455
851.2112
0.199973 0.461817 0.12472
442.8631
553.3498
626.5792
698.6877
823.5577
861.5678
0.199973 0.461817 0.18708
426.5388
534.7772
619.7302
700.4987
849.0965
876.798
0.199973 0.461817 0.24944
429.1656
492.3965
640.7862
688.3216
870.2166
885.89
0.199973 0.461817 -0.3118
453.0007
453.0007
666.554
666.554
883.5683
883.5683
0.199973 0.577272 0.0
525.6505
556.977
659.8066
692.7386
767.5448
865.3443
0.199973 0.577272 0.06236
503.2373
574.2324
626.3895
716.3045
780.4296
867.6127
0.199973 0.577272 0.12472
470.2207
577.724
599.6622
733.4473
810.838
875.5938
0.199973 0.577272 0.18708
445.1992
528.7222
628.2015
730.944
844.5357
886.7561
0.199973 0.577272 0.24944
437.591
484.3969
658.9537
714.1085
871.9566
892.9946
0.199973 0.577272 -0.3118
451.5982
451.5982
688.7915
688.7915
888.5652
888.5652
0.299959 0.519545 0.0
551.834
634.3687
634.7213
701.9357
743.5334
853.3817
0.299959 0.519545 0.06236
532.3594
601.6209
649.2571
720.6904
764.4347
850.1699
0.299959 0.519545 0.12472
494.7735
554.774
665.7042
754.2099
801.7453
843.2818
0.299959 0.519545 0.18708
461.3615
508.0187
689.1336
773.2696
833.6433
842.3214
0.299959 0.519545 0.24944
443.2013
469.3604
716.8516
766.0221
852.136
853.1301
0.299959 0.519545 -0.3118
445.9517
445.9517
744.2084
744.2084
858.6372
858.6372
P	=	9000.13	V	=	69.45869	E	=	-654.36115552
0.0 0.0 0.0
-0.0
-0.0
0.0
480.0327
480.0327
998.3018
0.0 0.0 0.062348
73.1807
73.1807
175.8927
474.3846
474.3846
987.7912
0.0 0.0 0.124696
143.8809
143.8809
344.3259
456.9051
456.9051
956.8115
0.0 0.0 0.187044
210.8712
210.8712
426.8078
426.8078
498.5113
906.3353
0.0 0.0 0.249392
273.9852
273.9852
384.5943
384.5943
633.2673
836.4521
0.0 0.0 -0.311739
332.6149
332.6149
332.6149
332.6149
745.9254
745.9254
0.0 0.115466 0.0
137.6777
144.1448
314.1729
503.3026
546.2084
979.6854
0.0 0.115466 0.062348
162.5016
173.0799
348.5035
497.9626
540.2449
970.7451
0.0 0.115466 0.124696
206.1766
232.522
439.1551
481.5427
522.0827
944.2126
0.0 0.115466 0.187044
259.3946
289.648
453.5296
490.6485
553.3509
900.517
0.0 0.115466 0.249392
314.2863
345.1322
414.5921
448.8537
663.8664
839.5035
0.0 0.115466 -0.311739
367.0859
367.0859
399.0127
399.0127
760.5275
760.5275
0.0 0.230933 0.0
264.1448
266.8245
555.2915
571.1609
684.4429
927.1035
0.0 0.230933 0.062348
278.1127
279.1732
550.4934
587.3485
675.8786
924.181
0.0 0.230933 0.124696
308.0941
318.1876
535.9544
623.7698
657.4244
914.0582
0.0 0.230933 0.187044
348.8992
370.5591
511.6334
601.2951
697.854
893.7993
0.0 0.230933 0.249392
393.7757
429.2562
478.3441
549.4705
759.0764
861.0339
0.0 0.230933 -0.311739
438.0918
438.0918
490.2441
490.2441
815.3906
815.3906
0.0 0.346399 0.0
352.6079
372.6461
606.513
736.3825
816.576
850.8687
0.0 0.346399 0.062348
361.6727
377.2743
601.9884
740.3165
791.363
875.3169
0.0 0.346399 0.124696
386.4921
392.9032
588.4892
712.9738
795.7863
901.438
0.0 0.346399 0.187044
421.585
422.715
566.3701
655.7722
830.5187
914.3657
0.0 0.346399 0.249392
461.1838
467.965
536.5373
591.074
866.5088
911.9535
0.0 0.346399 -0.311739
500.647
500.647
526.0917
526.0917
895.1053
895.1053
0.0 0.461866 0.0
398.5502
458.7245
640.4381
770.9347
820.546
899.2129
0.0 0.461866 0.062348
406.658
456.9489
635.8747
748.5589
835.8065
911.9231
0.0 0.461866 0.124696
429.2136
455.6455
622.4019
702.9967
866.4555
936.0381
0.0 0.461866 0.187044
461.8302
463.6601
600.6552
647.6931
900.984
954.6199
0.0 0.461866 0.249392
488.6903
499.3302
571.6915
588.2636
931.3523
960.4708
0.0 0.461866 -0.311739
532.2063
532.2063
537.1134
537.1134
952.2218
952.2218
0.0 -0.577332 0.0
412.1266
499.0275
652.008
729.7528
846.1213
924.8975
0.0 -0.577332 0.062348
419.9486
494.0627
647.3732
716.3973
857.8029
934.5098
0.0 -0.577332 0.124696
441.839
484.6849
633.7364
681.856
886.7287
954.8378
0.0 -0.577332 0.187044
473.7755
482.4226
611.8393
634.4506
920.9498
972.1987
0.0 -0.577332 0.249392
497.2724
510.7992
581.4588
582.8233
950.8998
978.4269
0.0 -0.577332 -0.311739
532.2426
532.2426
548.3285
548.3285
971.0296
971.0296
0.099997 0.1732 0.0
232.0329
257.5477
475.8717
576.1601
633.9833
944.0446
0.099997 0.1732 0.062348
248.4461
268.925
491.8839
576.7163
626.3817
938.7433
0.099997 0.1732 0.124696
289.2979
298.9743
514.9592
595.2728
603.7432
922.3388
0.099997 0.1732 0.187044
339.4566
341.1391
505.6119
567.2374
654.6547
893.5773
0.099997 0.1732 0.249392
382.8573
394.5241
479.1869
520.4015
727.2602
851.1976
0.099997 0.1732 -0.311739
418.0008
418.0008
474.098
474.098
795.0232
795.0232
0.099997 0.288666 0.0
337.5426
366.0648
573.7129
708.2602
755.1535
879.2292
0.099997 0.288666 0.062348
339.8983
376.3558
577.7963
708.1456
745.8597
885.6963
0.099997 0.288666 0.124696
353.2582
401.7596
580.6404
684.5336
752.3949
895.6059
0.099997 0.288666 0.187044
382.6894
434.9669
570.5845
636.3286
785.7327
897.0934
0.099997 0.288666 0.249392
425.3843
467.013
549.3555
583.8232
825.4045
885.4065
0.099997 0.288666 -0.311739
467.3682
467.3682
545.4978
545.4978
860.5468
860.5468
0.099997 0.404133 0.0
431.3118
432.9863
637.1982
790.0351
799.0216
861.9918
0.099997 0.404133 0.062348
419.3499
449.9208
636.0739
756.6238
818.0015
879.207
0.099997 0.404133 0.124696
413.6482
474.1106
626.9051
710.7811
842.5106
907.0878
0.099997 0.404133 0.187044
421.3713
502.9378
602.1739
666.4212
872.7362
926.2393
0.099997 0.404133 0.249392
446.9359
519.3917
576.0577
628.2045
901.5182
931.396
0.099997 0.404133 -0.311739
487.0714
487.0714
594.2864
594.2864
922.4052
922.4052
0.099997 0.519599 0.0
462.5968
499.8727
669.5536
730.5756
829.1681
912.4539
0.099997 0.519599 0.062348
459.7453
503.5563
659.0157
723.2756
842.075
920.7139
0.099997 0.519599 0.124696
451.8393
518.7869
629.3825
706.3116
871.9058
939.1132
0.099997 0.519599 0.187044
448.4122
543.7855
588.7029
682.2289
905.9666
955.6087
0.099997 0.519599 0.249392
460.4038
533.817
584.2963
652.1343
935.3893
961.8503
0.099997 0.519599 -0.311739
491.1248
491.1248
618.213
618.213
954.9179
954.9179
0.199994 0.346399 0.0
421.8122
484.3973
623.6727
787.6122
809.1186
828.319
0.199994 0.346399 0.062348
415.2817
490.3374
633.4806
744.7217
830.8905
845.652
0.199994 0.346399 0.124696
406.0966
505.8278
650.0601
690.2542
840.7312
880.7075
0.199994 0.346399 0.187044
409.7426
521.7026
639.9848
655.4512
859.555
902.0576
0.199994 0.346399 0.249392
433.1335
512.9873
616.9108
646.0384
882.1387
908.1412
0.199994 0.346399 -0.311739
472.9565
472.9565
628.3668
628.3668
900.3118
900.3118
0.199994 0.461866 0.0
501.2376
557.1418
685.7869
731.9047
803.1069
884.7037
0.199994 0.461866 0.062348
486.2946
564.9516
681.5243
719.8365
825.3683
887.4531
0.199994 0.461866 0.124696
460.4496
574.2393
651.9459
725.8341
857.7594
898.0872
0.199994 0.461866 0.187044
443.8051
555.4351
644.5938
727.5127
884.5344
913.7558
0.199994 0.461866 0.249392
446.6054
511.974
665.9671
714.9137
906.514
923.0447
0.199994 0.461866 -0.311739
471.2793
471.2793
692.462
692.462
920.4702
920.4702
0.199994 0.577332 0.0
545.9779
578.8613
686.2863
719.3173
799.2671
902.0243
0.199994 0.577332 0.062348
522.8584
596.9213
651.1182
744.3665
812.5241
904.3846
0.199994 0.577332 0.124696
488.9618
600.5888
623.4826
762.3888
843.9717
912.6712
0.199994 0.577332 0.187044
463.3597
549.9005
653.1059
759.7866
879.0401
924.1718
0.199994 0.577332 0.249392
455.6362
504.0807
684.9602
742.2252
907.7809
930.3914
0.199994 0.577332 -0.311739
470.1611
470.1611
715.9005
715.9005
925.4088
925.4088
0.299991 0.519599 0.0
573.4158
659.7269
659.7982
729.5107
773.1155
889.0927
0.299991 0.519599 0.062348
553.3114
625.329
675.2676
749.0427
795.0137
885.6876
0.299991 0.519599 0.124696
514.5752
576.801
692.2716
783.935
834.1359
878.3769
0.299991 0.519599 0.187044
480.2024
528.5284
716.4697
803.7748
867.5531
877.1598
0.299991 0.519599 0.249392
461.5505
488.6314
745.1857
796.301
887.0837
887.9258
0.299991 0.519599 -0.311739
464.4431
464.4431
773.6109
773.6109
893.7093
893.7093
P	=	9999.74	V	=	67.37297	E	=	-654.22658608
0.0 0.0 0.0
-0.0
0.0
0.0
496.1617
496.1617
1038.1336
0.0 0.0 0.062334
75.5701
75.5701
182.5737
490.4065
490.4065
1027.0452
0.0 0.0 0.124669
148.592
148.592
357.3807
472.5163
472.5163
994.4291
0.0 0.0 0.187003
217.8387
217.8387
441.5295
441.5295
517.3769
941.4795
0.0 0.0 0.249338
283.1821
283.1821
397.8644
397.8644
657.2285
868.4796
0.0 0.0 -0.311672
343.9713
343.9713
343.9713
343.9713
774.2478
774.2478
0.0 0.11548 0.0
142.5691
148.6904
325.5334
520.2409
564.2492
1018.4952
0.0 0.11548 0.062334
167.6475
179.0509
361.3578
514.7591
558.1565
1009.1217
0.0 0.11548 0.124669
212.7588
240.1805
455.7566
497.8593
539.536
981.3139
0.0 0.11548 0.187003
267.7699
298.9898
468.9247
507.0862
574.4326
935.5742
0.0 0.11548 0.249338
324.593
356.2886
428.594
463.7993
689.1697
871.8538
0.0 0.11548 -0.311672
379.3277
379.3277
412.1035
412.1035
789.6072
789.6072
0.0 0.23096 0.0
273.2862
275.6277
574.1187
592.0567
707.3882
963.1084
0.0 0.23096 0.062334
287.2526
288.9597
569.1269
608.8528
698.6313
960.1389
0.0 0.23096 0.124669
318.1488
329.3416
554.0091
645.7986
680.6735
949.6945
0.0 0.23096 0.187003
360.2481
383.2021
528.7417
621.3575
724.1359
928.5312
0.0 0.23096 0.249338
406.6162
443.5584
494.1954
567.7555
787.8171
894.1923
0.0 0.23096 -0.311672
452.4776
452.4776
506.4891
506.4891
846.4781
846.4781
0.0 0.34644 0.0
365.0029
385.2381
627.3344
763.3632
846.0039
882.9743
0.0 0.34644 0.062334
374.329
390.2947
622.6004
766.8813
820.6754
908.2152
0.0 0.34644 0.124669
399.8629
406.8912
608.5029
737.9977
825.835
935.5656
0.0 0.34644 0.187003
435.971
437.8387
585.4767
678.8835
861.7262
949.0793
0.0 0.34644 0.249338
476.741
484.519
554.5335
611.8969
899.0298
946.4553
0.0 0.34644 -0.311672
517.4324
517.4324
544.5951
544.5951
928.7908
928.7908
0.0 0.461919 0.0
413.4176
474.1538
662.6702
799.0926
851.1738
933.5237
0.0 0.461919 0.062334
421.7765
472.6581
657.9084
775.8255
866.9967
946.7581
0.0 0.461919 0.124669
444.9894
471.9584
643.8718
728.5845
898.6495
971.9139
0.0 0.461919 0.187003
478.4792
480.6629
621.2848
671.3136
934.4157
991.21
0.0 0.461919 0.249338
506.6582
516.9363
591.3287
609.7568
966.0995
997.0549
0.0 0.461919 -0.311672
551.6966
551.6966
555.7214
555.7214
988.1117
988.1117
0.0 -0.577399 0.0
427.89
515.9236
674.7401
755.9046
878.1358
960.8583
0.0 -0.577399 0.062334
435.968
511.1644
669.9148
742.1508
889.9905
970.871
0.0 -0.577399 0.124669
458.5112
502.1757
655.7351
706.5441
919.5615
992.021
0.0 -0.577399 0.187003
491.2775
500.3124
633.0292
657.6154
954.9368
1009.9338
0.0 -0.577399 0.249338
515.8152
529.1768
602.8595
603.0687
986.308
1016.0195
0.0 -0.577399 -0.311672
551.9808
551.9808
567.6173
567.6173
1007.7617
1007.7617
0.100008 0.17322 0.0
240.1331
265.7126
492.7417
596.401
654.8624
980.9463
0.100008 0.17322 0.062334
257.177
277.447
509.1894
597.2115
647.0704
975.4715
0.100008 0.17322 0.124669
299.3243
308.452
532.3922
617.3779
623.8091
958.4386
0.100008 0.17322 0.187003
350.2554
352.5698
522.383
586.1615
679.4649
928.4093
0.100008 0.17322 0.249338
395.1204
407.4457
494.9595
537.7087
754.9531
884.0915
0.100008 0.17322 -0.311672
431.5041
431.5041
489.7575
489.7575
825.4693
825.4693
0.100008 0.2887 0.0
349.0688
378.0603
593.1946
733.9631
781.7634
912.8036
0.100008 0.2887 0.062334
351.7023
388.6904
597.2627
733.2877
772.9312
919.5683
0.100008 0.2887 0.124669
365.7475
414.9071
599.943
708.0846
780.8836
929.9627
0.100008 0.2887 0.187003
396.0579
449.129
589.4638
658.3136
815.5229
931.4732
0.100008 0.2887 0.249338
439.8471
482.1223
567.7538
603.9005
856.6222
919.1358
0.100008 0.2887 -0.311672
482.7586
482.7586
564.0388
564.0388
893.1356
893.1356
0.100008 0.40418 0.0
445.898
448.0223
658.8747
818.9767
828.6618
894.4102
0.100008 0.40418 0.062334
433.8621
465.4695
657.6196
784.0273
848.8206
912.2199
0.100008 0.40418 0.124669
428.3557
490.5129
648.1126
736.3593
874.321
941.3145
0.100008 0.40418 0.187003
436.5392
520.1496
622.9486
690.0372
905.5566
961.289
0.100008 0.40418 0.249338
462.8819
537.0266
596.3982
650.0199
935.3449
966.5557
0.100008 0.40418 -0.311672
504.1306
504.1306
614.8781
614.8781
957.0774
957.0774
0.100008 0.519659 0.0
479.4064
516.9093
692.5174
756.9521
860.2407
947.6329
0.100008 0.519659 0.062334
476.251
521.2565
681.6771
749.3506
873.4543
956.2251
0.100008 0.519659 0.124669
468.141
537.5093
651.2873
731.5695
904.1132
975.3414
0.100008 0.519659 0.187003
464.8572
563.2706
609.6164
706.3719
939.3604
992.3476
0.100008 0.519659 0.249338
477.3147
552.8834
605.1785
675.0656
970.1044
998.4879
0.100008 0.519659 -0.311672
508.969
508.969
640.0097
640.0097
990.8101
990.8101
0.200017 0.34644 0.0
436.1714
500.2604
644.8651
815.1449
839.3504
860.1576
0.200017 0.34644 0.062334
429.6827
506.3696
654.7947
771.3016
862.8769
876.8749
0.200017 0.34644 0.124669
420.5933
522.2826
671.577
715.1032
873.137
913.5557
0.200017 0.34644 0.187003
424.4669
538.5839
663.2293
677.0196
892.5048
935.9074
0.200017 0.34644 0.249338
448.4585
530.0562
638.7295
667.4763
915.6122
942.2695
0.200017 0.34644 -0.311672
489.3082
489.3082
649.6807
649.6807
934.2246
934.2246
0.200017 0.461919 0.0
518.5007
576.1797
709.214
758.6437
832.1832
918.541
0.200017 0.461919 0.062334
503.2658
584.2075
705.1273
745.6503
855.5127
921.3633
0.200017 0.461919 0.124669
476.9381
593.6542
675.447
750.862
889.5199
932.2089
0.200017 0.461919 0.187003
459.9927
574.6167
667.636
752.348
917.5035
948.1772
0.200017 0.461919 0.249338
462.9213
530.1703
689.2421
739.3644
940.2735
957.584
0.200017 0.461919 -0.311672
488.3191
488.3191
716.3323
716.3323
954.7663
954.7663
0.200017 0.577399 0.0
565.0197
599.2043
711.0007
743.7716
828.7789
936.3053
0.200017 0.577399 0.062334
541.226
618.0294
674.0989
770.2808
842.3628
938.7574
0.200017 0.577399 0.124669
506.5044
621.8208
645.631
789.0948
874.7302
947.3154
0.200017 0.577399 0.187003
480.3427
569.5694
676.2161
786.3818
911.0311
959.0666
0.200017 0.577399 0.249338
472.4808
522.381
709.0202
768.1462
940.9918
965.1802
0.200017 0.577399 -0.311672
487.4513
487.4513
740.9175
740.9175
959.6068
959.6068
0.300025 0.519659 0.0
593.6394
682.8602
683.5736
755.1418
800.5484
922.3258
0.300025 0.519659 0.062334
572.9271
647.4205
699.38
775.383
823.3926
918.7473
0.300025 0.519659 0.124669
533.0846
597.3031
716.8743
811.4838
864.1916
911.0599
0.300025 0.519659 0.187003
497.7829
547.5904
741.7533
831.9506
898.9937
909.6046
0.300025 0.519659 0.249338
478.6385
506.5318
771.3483
824.2291
919.5619
920.1755
0.300025 0.519659 -0.311672
481.6331
481.6331
800.7303
800.7303
926.238
926.238
P	=	11000.06	V	=	65.50678	E	=	-654.09347902
0.0 0.0 0.0
-0.0
0.0
0.0
511.2974
511.2974
1075.6616
0.0 0.0 0.062319
77.7544
77.7544
188.8559
505.4508
505.4508
1064.0329
0.0 0.0 0.124639
152.9479
152.9479
369.6812
487.2035
487.2035
1029.8911
0.0 0.0 0.186958
224.3665
224.3665
455.4242
455.4242
535.1926
974.6424
0.0 0.0 0.249277
291.8798
291.8798
410.4333
410.4333
679.8889
898.7416
0.0 0.0 -0.311597
354.7454
354.7454
354.7454
354.7454
801.0356
801.0356
0.0 0.115495 0.0
147.2746
152.9632
336.153
536.1238
581.1324
1055.0756
0.0 0.115495 0.062319
172.4587
184.7318
373.3843
530.5133
574.9328
1045.2967
0.0 0.115495 0.124639
218.8967
247.4045
471.3404
513.179
555.9239
1016.3009
0.0 0.115495 0.186958
275.6171
307.8043
483.4092
522.5775
594.2975
968.6642
0.0 0.115495 0.249277
334.3044
366.8516
441.8009
477.938
713.0764
902.4258
0.0 0.115495 -0.311597
390.888
390.888
424.5134
424.5134
817.1058
817.1058
0.0 0.23099 0.0
282.0109
283.9623
591.8006
611.6737
728.9115
997.1086
0.0 0.23099 0.062319
295.8882
298.294
586.6254
629.031
720.0025
994.0831
0.0 0.23099 0.124639
327.6207
339.9745
570.9649
666.4336
702.6148
983.3189
0.0 0.23099 0.186958
370.9339
395.2639
544.8216
640.334
748.8583
961.3062
0.0 0.23099 0.249277
418.717
457.2123
509.1161
585.1278
814.9158
925.4998
0.0 0.23099 -0.311597
466.0353
466.0353
521.977
521.977
875.8299
875.8299
0.0 0.346486 0.0
376.8662
397.1903
647.001
788.8724
873.8357
913.4079
0.0 0.346486 0.062319
386.4265
402.674
642.0693
792.0004
848.4335
939.333
0.0 0.346486 0.124639
412.6102
420.2355
627.4113
761.7642
854.1994
967.7948
0.0 0.346486 0.186958
449.6578
452.3132
603.5437
700.8927
891.1673
981.8472
0.0 0.346486 0.249277
491.5217
500.3889
571.5771
631.7874
929.7234
979.0292
0.0 0.346486 -0.311597
533.3569
533.3569
562.3184
562.3184
960.5966
960.5966
0.0 0.461981 0.0
427.7927
488.8195
683.7964
825.8842
880.4086
966.1436
0.0 0.461981 0.062319
436.3811
487.5986
678.851
801.8025
896.7045
979.8474
0.0 0.461981 0.124639
460.1967
487.4937
664.2945
752.9946
929.2135
1005.9411
0.0 0.461981 0.186958
494.4895
496.8856
640.9374
693.879
966.0771
1025.8748
0.0 0.461981 0.249277
523.8398
533.8271
610.076
630.3206
998.9756
1031.6881
0.0 0.461981 -0.311597
570.3554
570.3554
573.5299
573.5299
1022.0714
1022.0714
0.0 -0.577476 0.0
443.1954
532.0313
696.3953
780.8096
908.8182
995.1126
0.0 -0.577476 0.062319
451.5098
527.4571
691.3957
766.6966
920.7824
1005.479
0.0 -0.577476 0.124639
474.6555
518.8171
676.7202
730.1146
950.8431
1027.3562
0.0 -0.577476 0.186958
508.1845
517.3316
653.279
679.7691
987.2013
1045.7423
0.0 -0.577476 0.249277
533.4957
546.8823
622.4633
623.3441
1019.8607
1051.6546
0.0 -0.577476 -0.311597
570.8543
570.8543
586.1477
586.1477
1042.5601
1042.5601
0.100022 0.173243 0.0
247.8793
273.3422
508.5657
615.385
674.4329
1015.7705
0.100022 0.173243 0.062319
265.5193
285.3992
525.3997
616.4449
666.4857
1010.1267
0.100022 0.173243 0.124639
308.8902
317.288
548.7102
638.1431
642.7014
992.4969
0.100022 0.173243 0.186958
360.3453
363.4677
538.11
604.0574
702.813
961.2855
0.100022 0.173243 0.249277
406.6154
419.7423
509.8023
554.15
781.0798
915.1621
0.100022 0.173243 -0.311597
444.2047
444.2047
504.6562
504.6562
854.2319
854.2319
0.100022 0.288738 0.0
360.0174
389.3273
611.5019
758.1746
806.9133
944.5926
0.100022 0.288738 0.062319
362.9451
400.2652
615.5376
756.9822
798.5424
951.599
0.100022 0.288738 0.124639
377.6901
427.2354
618.0536
730.4223
807.7478
962.3966
0.100022 0.288738 0.186958
408.8634
462.4187
607.2141
679.2273
843.6165
963.9123
0.100022 0.288738 0.249277
453.6741
496.3319
585.1435
623.0217
886.0844
950.9729
0.100022 0.288738 -0.311597
497.3527
497.3527
581.6555
581.6555
923.9047
923.9047
0.100022 0.404233 0.0
459.7401
462.3108
679.3557
846.5087
856.8592
925.1639
0.100022 0.404233 0.062319
447.6824
480.2154
677.9785
810.1397
878.0663
943.5181
0.100022 0.404233 0.124639
442.4132
506.0536
668.1864
760.7181
904.4519
973.7155
0.100022 0.404233 0.186958
451.0744
536.4488
642.6961
712.4774
936.6028
994.4347
0.100022 0.404233 0.249277
478.1731
553.7838
615.7608
670.7063
967.3252
999.793
0.100022 0.404233 -0.311597
520.4541
520.4541
634.4087
634.4087
989.8528
989.8528
0.100022 0.519728 0.0
495.5216
533.1448
714.3184
782.1147
889.9808
981.0859
0.100022 0.519728 0.062319
492.0593
538.1392
703.2325
774.1932
903.4311
989.9779
0.100022 0.519728 0.124639
483.7396
555.3679
672.1984
755.5755
934.7648
1009.7336
0.100022 0.519728 0.186958
480.5872
581.8449
629.6313
729.2871
971.0372
1027.1768
0.100022 0.519728 0.249277
493.5066
571.1551
625.0576
696.8294
1002.9767
1033.1844
0.100022 0.519728 -0.311597
526.076
526.076
660.7173
660.7173
1024.7837
1024.7837
0.200044 0.346486 0.0
449.7885
515.1005
664.8321
841.3476
868.1214
890.2904
0.200044 0.346486 0.062319
443.3838
521.3622
674.8435
796.6617
893.1524
906.5035
0.200044 0.346486 0.124639
434.4602
537.6649
691.7756
738.8617
903.8094
944.6355
0.200044 0.346486 0.186958
438.59
554.3995
685.4411
697.2675
923.6831
967.8899
0.200044 0.346486 0.249277
463.1439
546.1961
659.4463
687.6342
947.2719
974.5117
0.200044 0.346486 -0.311597
504.9091
504.9091
669.7834
669.7834
966.2806
966.2806
0.200044 0.461981 0.0
534.9424
594.1371
731.3691
784.2212
859.965
950.6095
0.200044 0.461981 0.062319
519.4497
602.3682
727.5352
770.261
884.2322
953.5108
0.200044 0.461981 0.124639
492.691
611.9807
697.8913
774.5084
919.6638
964.5616
0.200044 0.461981 0.186958
475.4614
592.8266
689.5158
775.7424
948.728
980.7735
0.200044 0.461981 0.249277
478.4929
547.4946
711.2283
762.384
972.2093
990.25
0.200044 0.461981 -0.311597
504.5591
504.5591
738.8246
738.8246
987.1916
987.1916
0.200044 0.577476 0.0
583.2283
618.5011
734.6744
766.9502
856.9943
968.7857
0.200044 0.577476 0.062319
558.7704
638.0776
696.0855
794.8452
870.8461
971.3333
0.200044 0.577476 0.124639
523.247
642.1398
666.6618
814.3302
903.989
980.1467
0.200044 0.577476 0.186958
496.5202
588.3678
698.1211
811.4668
941.3585
992.0974
0.200044 0.577476 0.249277
488.5006
539.8296
731.7655
792.5819
972.4033
998.068
0.200044 0.577476 -0.311597
503.9012
503.9012
764.5182
764.5182
991.9227
991.9227
0.300065 0.519728 0.0
613.0091
704.7586
706.3961
779.4964
826.706
953.6926
0.300065 0.519728 0.062319
591.7142
668.5454
722.3011
800.3738
850.402
949.9628
0.300065 0.519728 0.124639
550.787
616.9006
740.2242
837.5341
892.6954
941.948
0.300065 0.519728 0.186958
514.5326
565.748
765.6939
858.5043
928.7159
940.281
0.300065 0.519728 0.249277
494.8443
523.5086
796.0468
850.518
950.232
950.6045
0.300065 0.519728 -0.311597
497.9017
497.9017
826.2749
826.2749
956.921
956.921
P	=	11999.82	V	=	63.82414	E	=	-653.96201466
0.0 0.0 0.0
-0.0
0.0
0.0
525.5605
525.5605
1111.1807
0.0 0.0 0.062305
79.8324
79.8324
194.7904
519.6335
519.6335
1099.0541
0.0 0.0 0.124609
157.1167
157.1167
381.3315
501.0725
501.0725
1063.5068
0.0 0.0 0.186914
230.6461
230.6461
468.5933
468.5933
552.1175
1006.1357
0.0 0.0 0.249219
300.2536
300.2536
422.4136
422.4136
701.4626
927.5352
0.0 0.0 -0.311523
365.0782
365.0782
365.0782
365.0782
826.5512
826.5512
0.0 0.115509 0.0
151.6728
156.8975
346.1211
551.063
596.991
1089.7207
0.0 0.115509 0.062305
176.9166
190.0659
384.6736
545.3354
590.6873
1079.5689
0.0 0.115509 0.124609
224.6516
254.1633
486.0384
527.6096
571.3216
1049.4779
0.0 0.115509 0.186914
283.0494
316.076
497.0904
537.1672
613.1338
1000.0834
0.0 0.115509 0.249219
343.5492
376.8442
454.3254
491.3176
735.8036
931.4912
0.0 0.115509 -0.311523
401.8898
401.8898
436.2912
436.2912
843.2657
843.2657
0.0 0.231018 0.0
290.2909
291.6898
608.4361
630.138
749.1849
1029.3592
0.0 0.231018 0.062305
303.9057
307.1546
603.0908
647.9941
740.1317
1026.2781
0.0 0.231018 0.124609
336.4528
350.0286
586.9302
685.7539
723.3593
1015.2009
0.0 0.231018 0.186914
380.9592
406.6281
559.9837
658.2251
772.2066
992.3707
0.0 0.231018 0.249219
430.1284
470.1085
523.2092
601.5736
840.5734
955.1699
0.0 0.231018 -0.311523
478.8484
478.8484
536.6544
536.6544
903.6467
903.6467
0.0 0.346527 0.0
387.9837
408.7045
665.6086
813.0275
900.272
942.3324
0.0 0.346527 0.062305
397.7697
414.5829
660.4946
815.7872
874.7962
968.8688
0.0 0.346527 0.124609
424.5865
433.0175
645.3195
784.3575
881.0347
998.3337
0.0 0.346527 0.186914
462.5603
466.1168
620.6731
721.855
919.0046
1012.8619
0.0 0.346527 0.249219
505.5052
515.5073
587.7477
650.7575
958.7571
1009.8488
0.0 0.346527 -0.311523
548.4577
548.4577
579.2199
579.2199
990.6894
990.6894
0.0 0.462036 0.0
441.4011
503.03
703.9152
851.4246
908.3542
997.2655
0.0 0.462036 0.062305
450.2131
502.0473
698.803
826.6019
925.0582
1011.3945
0.0 0.462036 0.124609
474.6203
502.4561
683.7716
776.3303
958.3181
1038.3324
0.0 0.462036 0.186914
509.7102
512.4539
659.7023
715.4713
996.1545
1058.8156
0.0 0.462036 0.249219
540.2979
549.9258
627.9873
650.0075
1030.1551
1064.548
0.0 0.462036 -0.311523
588.2209
588.2209
590.5347
590.5347
1054.266
1054.266
0.0 -0.577545 0.0
457.745
547.6274
717.0737
804.6121
938.2644
1027.8457
0.0 -0.577545 0.062305
466.2909
543.2028
711.9171
790.1632
950.3133
1038.5373
0.0 -0.577545 0.124609
490.0305
534.8436
696.7914
752.6682
980.7715
1061.0662
0.0 -0.577545 0.186914
524.3192
533.6774
672.6717
700.9878
1017.9596
1079.8356
0.0 -0.577545 0.249219
550.4524
563.8163
641.05
642.9762
1051.7498
1085.5145
0.0 -0.577545 -0.311523
588.947
588.947
603.8987
603.8987
1075.5955
1075.5955
0.100034 0.173263 0.0
255.198
280.3974
523.3814
633.2859
692.8288
1048.7864
0.100034 0.173263 0.062305
273.4054
292.7632
540.5591
634.5855
684.7279
1042.9853
0.100034 0.173263 0.124609
317.8913
325.5115
563.9967
657.7321
660.4533
1024.7952
0.100034 0.173263 0.186914
369.8052
373.6902
552.8979
620.916
724.8913
992.4681
0.100034 0.173263 0.249219
417.4527
431.3193
523.811
569.7009
805.8496
944.6395
0.100034 0.173263 -0.311523
456.1896
456.1896
518.7712
518.7712
881.5234
881.5234
0.100034 0.288772 0.0
370.5155
399.8061
628.6686
781.0444
830.774
974.7715
0.100034 0.288772 0.062305
373.6907
411.0551
632.6751
779.3483
822.8425
981.986
0.100034 0.288772 0.124609
389.0381
438.7614
635.0609
751.5798
833.1522
993.1224
0.100034 0.288772 0.186914
420.9749
474.8886
623.9323
699.0811
870.1831
994.6094
0.100034 0.288772 0.249219
466.7389
509.711
601.5913
641.2112
913.9645
981.0932
0.100034 0.288772 -0.311523
511.1236
511.1236
598.3999
598.3999
953.0234
953.0234
0.100034 0.404281 0.0
473.13
475.7077
698.7249
872.7278
883.6767
954.4419
0.100034 0.404281 0.062305
460.9002
494.1765
697.2407
835.0257
905.856
973.289
0.100034 0.404281 0.124609
455.8435
520.7421
687.2128
783.9333
933.0522
1004.4835
0.100034 0.404281 0.186914
464.9338
551.8667
661.4694
733.8581
966.0342
1025.8631
0.100034 0.404281 0.249219
492.7379
569.6768
634.212
690.4126
997.6139
1031.2766
0.100034 0.404281 -0.311523
535.9869
535.9869
653.0156
653.0156
1020.8863
1020.8863
0.100034 0.51979 0.0
510.7295
548.8459
735.0684
806.1171
918.4615
1012.9995
0.100034 0.51979 0.062305
507.0622
554.3446
723.7838
797.8654
932.1165
1022.1745
0.100034 0.51979 0.124609
498.6287
572.3836
692.1892
778.4268
964.0317
1042.5101
0.100034 0.51979 0.186914
495.6202
599.5336
648.7878
751.1187
1001.188
1060.3073
0.100034 0.51979 0.249219
508.9931
588.64
644.0258
717.5956
1034.1828
1066.1238
0.100034 0.51979 -0.311523
542.4487
542.4487
680.4866
680.4866
1057.0063
1057.0063
0.200067 0.346527 0.0
462.9437
528.948
683.5601
866.3229
895.4484
918.9021
0.200067 0.346527 0.062305
456.58
535.3546
693.6533
820.8255
921.9009
934.6389
0.200067 0.346527 0.124609
447.7388
552.0402
710.7429
761.5208
932.9298
974.0942
0.200067 0.346527 0.186914
452.0543
569.2315
706.6351
716.3314
953.2594
998.1653
0.200067 0.346527 0.249219
477.1132
561.4237
679.1862
706.6915
977.2686
1005.019
0.200067 0.346527 -0.311523
519.7131
519.7131
688.8655
688.8655
996.6229
996.6229
0.200067 0.462036 0.0
550.8131
610.9751
752.2997
808.5454
886.5165
981.0936
0.200067 0.462036 0.062305
535.0029
619.4337
748.7576
793.6448
911.619
984.0886
0.200067 0.462036 0.124609
507.7601
629.2641
719.2263
796.8807
948.3376
995.3456
0.200067 0.462036 0.186914
490.2449
610.1121
710.2747
797.8753
978.3745
1011.7396
0.200067 0.462036 0.249219
493.3922
564.0169
732.0794
784.1989
1002.4794
1021.2214
0.200067 0.462036 -0.311523
520.0918
520.0918
760.1598
760.1598
1017.9068
1017.9068
0.200067 0.577545 0.0
600.743
636.645
757.2333
788.9718
883.934
999.6603
0.200067 0.577545 0.062305
575.5467
657.0055
717.0422
818.1555
898.0423
1002.3204
0.200067 0.577545 0.124609
539.2105
661.5302
686.5378
838.2348
931.8885
1011.3909
0.200067 0.577545 0.186914
511.9614
606.338
718.8518
835.2424
970.194
1023.4865
0.200067 0.577545 0.249219
503.8482
556.5518
753.3234
815.7659
1002.1927
1029.2586
0.200067 0.577545 -0.311523
519.6906
519.6906
786.9096
786.9096
1022.5419
1022.5419
0.300101 0.51979 0.0
631.5796
725.3956
728.1351
802.5878
851.6431
983.4037
0.300101 0.51979 0.062305
609.6711
688.6089
743.9651
824.0855
876.1347
979.5521
0.300101 0.51979 0.124609
567.6575
635.5342
762.2832
862.2301
919.7999
971.2684
0.300101 0.51979 0.186914
530.5295
583.0626
788.3133
883.6432
956.9202
969.402
0.300101 0.51979 0.249219
510.4039
539.7832
819.385
875.3948
979.3007
979.4372
0.300101 0.51979 -0.311523
513.5547
513.5547
850.4278
850.4278
985.9797
985.9797
P	=	13000.34	V	=	62.29386	E	=	-653.83204294
0.0 0.0 0.0
-0.0
0.0
0.0
539.0044
539.0044
1144.9649
0.0 0.0 0.062289
82.1792
82.1792
200.4242
533.0194
533.0194
1132.3884
0.0 0.0 0.124578
161.5616
161.5616
392.3562
514.1728
514.1728
1095.542
0.0 0.0 0.186867
236.8982
236.8982
480.973
480.973
568.0912
1036.1412
0.0 0.0 0.249156
308.1784
308.1784
433.5696
433.5696
721.8224
954.8948
0.0 0.0 -0.311445
374.6683
374.6683
374.6683
374.6683
850.6996
850.6996
0.0 0.115522 0.0
155.8949
160.6143
355.4763
565.1525
611.9156
1122.6973
0.0 0.115522 0.062289
181.251
195.2136
395.3463
559.3304
605.5355
1112.2042
0.0 0.115522 0.124578
230.3287
260.6855
500.0015
541.2459
585.8593
1081.0874
0.0 0.115522 0.186867
290.2195
323.9276
509.9688
550.8881
631.0108
1029.9982
0.0 0.115522 0.249156
352.235
386.1516
466.0201
503.7965
757.3314
959.104
0.0 0.115522 -0.311445
412.1187
412.1187
447.2026
447.2026
868.0591
868.0591
0.0 0.231045 0.0
298.1608
298.9773
624.1422
647.5011
768.2782
1060.1129
0.0 0.231045 0.062289
311.4851
315.6119
618.6468
665.8505
759.1304
1056.9625
0.0 0.231045 0.124578
344.8087
359.6212
602.0223
703.9306
743.0716
1045.5438
0.0 0.231045 0.186867
390.3896
417.3519
574.2849
675.1101
794.3507
1021.8779
0.0 0.231045 0.249156
440.7939
482.1532
536.4328
617.017
864.8927
983.3012
0.0 0.231045 -0.311445
490.8154
490.8154
550.354
550.354
929.9998
929.9998
0.0 0.346567 0.0
398.4409
419.5525
683.1918
835.7773
925.2878
969.9579
0.0 0.346567 0.062289
408.4342
425.8362
677.9109
838.2261
899.8239
996.967
0.0 0.346567 0.124578
435.8306
445.1293
662.2523
805.8062
906.4382
1027.3157
0.0 0.346567 0.186867
474.6553
479.1576
636.855
741.757
945.3412
1042.2425
0.0 0.346567 0.249156
518.6119
529.7295
602.9844
668.6977
986.2105
1039.0021
0.0 0.346567 -0.311445
562.6405
562.6405
595.1296
595.1296
1019.1369
1019.1369
0.0 0.46209 0.0
454.1689
516.4005
722.9367
875.7984
934.7561
1026.7981
0.0 0.46209 0.062289
463.192
515.6477
717.6702
850.2533
951.8659
1041.3374
0.0 0.46209 0.124578
488.1604
516.5371
702.1958
798.5746
985.8417
1069.0737
0.0 0.46209 0.186867
524.0139
527.0748
677.4514
736.0092
1024.5903
1090.0481
0.0 0.46209 0.249156
555.7377
565.0808
644.9134
668.6433
1059.624
1095.6565
0.0 0.46209 -0.311445
605.0338
605.0338
606.5759
606.5759
1084.7062
1084.7062
0.0 -0.577612 0.0
471.3812
562.3369
736.6276
827.2813
966.1234
1058.936
0.0 -0.577612 0.062289
480.1516
558.0354
731.3261
812.5214
978.26
1069.9366
0.0 -0.577612 0.124578
504.4691
549.8936
715.7822
774.1598
1009.1001
1093.076
0.0 -0.577612 0.186867
539.502
548.9729
691.0244
721.1657
1047.0624
1112.1776
0.0 -0.577612 0.249156
566.3086
579.7862
658.6328
661.546
1081.9093
1117.5872
0.0 -0.577612 -0.311445
605.9411
605.9411
620.6706
620.6706
1106.8489
1106.8489
0.100045 0.173284 0.0
262.1775
287.0409
537.2907
650.1835
710.1473
1080.2544
0.100045 0.173284 0.062289
280.9584
299.7372
554.809
651.7446
701.926
1074.2975
0.100045 0.173284 0.124578
326.4886
333.3379
578.3929
676.3232
677.2216
1055.5494
0.100045 0.173284 0.186867
378.7533
383.3079
566.8202
636.8114
745.8546
1022.1132
0.100045 0.173284 0.249156
427.6028
442.0695
536.9488
584.2661
829.3421
972.6106
0.100045 0.173284 -0.311445
467.3419
467.3419
531.9307
531.9307
907.3935
907.3935
0.100045 0.288806 0.0
380.4469
409.6611
644.7935
802.6057
853.3657
1003.597
0.100045 0.288806 0.062289
383.884
421.2141
648.7813
800.4478
845.8969
1010.959
0.100045 0.288806 0.124578
399.8102
449.624
651.0706
771.6298
857.2351
1022.3292
0.100045 0.288806 0.186867
432.3888
486.6216
639.6884
717.8958
895.3557
1023.7118
0.100045 0.288806 0.249156
478.9478
522.2583
617.0834
658.4016
940.3528
1009.5963
0.100045 0.288806 -0.311445
523.9729
523.9729
614.1918
614.1918
980.5637
980.5637
0.100045 0.404328 0.0
485.7589
488.2951
716.9844
897.5026
909.3234
982.2279
0.100045 0.404328 0.062289
473.3639
507.313
715.4068
858.7096
932.2164
1001.5626
0.100045 0.404328 0.124578
468.5114
534.571
705.1766
806.032
960.1359
1033.687
0.100045 0.404328 0.186867
477.9692
566.3907
679.2051
754.1816
993.8741
1055.6456
0.100045 0.404328 0.249156
506.3934
584.6343
651.6488
709.1043
1026.238
1061.059
0.100045 0.404328 -0.311445
550.5565
550.5565
670.6316
670.6316
1050.2119
1050.2119
0.100045 0.519851 0.0
525.0133
563.6996
754.6924
829.0409
945.4151
1043.3264
0.100045 0.519851 0.062289
521.1895
569.6212
743.2478
820.4354
959.2706
1052.7721
0.100045 0.519851 0.124578
512.6527
588.3872
711.1562
800.1577
991.7328
1073.6464
0.100045 0.519851 0.186867
509.7302
616.2035
666.9418
771.8461
1029.7047
1091.7386
0.100045 0.519851 0.249156
523.5034
605.1526
661.9428
737.2879
1063.6808
1097.3173
0.100045 0.519851 -0.311445
557.8325
557.8325
699.2027
699.2027
1087.4772
1087.4772
0.200091 0.346567 0.0
475.387
541.9751
701.1141
889.9817
921.6178
946.0667
0.200091 0.346567 0.062289
469.0749
548.5234
711.2841
843.8254
949.2022
961.4356
0.200091 0.346567 0.124578
460.3119
565.5818
728.5467
783.0957
960.5792
1002.0594
0.200091 0.346567 0.186867
464.7539
583.2077
726.7785
734.2892
981.2959
1026.828
0.200091 0.346567 0.249156
490.2255
575.7319
697.9274
724.7099
1005.6409
1033.8473
0.200091 0.346567 -0.311445
533.5914
533.5914
706.9542
706.9542
1025.2844
1025.2844
0.200091 0.46209 0.0
565.8994
626.8339
772.0437
831.8788
911.7053
1010.0845
0.200091 0.46209 0.062289
549.7676
635.5231
768.8437
815.9344
937.6266
1013.1725
0.200091 0.46209 0.124578
522.0253
645.6177
739.4678
818.0429
975.5278
1024.6126
0.200091 0.46209 0.186867
504.1981
626.5117
729.916
818.8092
1006.4297
1041.1171
0.200091 0.46209 0.249156
507.4366
579.6557
751.8225
804.8629
1031.0835
1050.5298
0.200091 0.46209 -0.311445
534.7517
534.7517
780.3794
780.3794
1046.9292
1046.9292
0.200091 0.577612 0.0
617.461
653.7482
778.8633
809.8616
909.4666
1029.0251
0.200091 0.577612 0.062289
591.5154
674.8535
737.0733
840.3074
923.8183
1031.7942
0.200091 0.577612 0.124578
554.3467
680.0372
705.2635
860.9099
958.3117
1041.0935
0.200091 0.577612 0.186867
526.5502
623.4484
738.4041
857.7799
997.4669
1053.2738
0.200091 0.577612 0.249156
518.3415
572.4278
773.7
837.739
1030.345
1058.7932
0.200091 0.577612 -0.311445
534.6349
534.6349
808.1134
808.1134
1051.49
1051.49
0.300136 0.519851 0.0
649.374
744.8755
749.032
824.5038
875.3542
1011.6448
0.300136 0.519851 0.062289
626.8374
707.8031
764.459
846.5801
900.6151
1007.6751
0.300136 0.519851 0.124578
583.7201
653.3389
783.0911
885.6185
945.5463
999.122
0.300136 0.519851 0.186867
545.7263
599.5704
809.6518
907.4338
983.6496
997.0159
0.300136 0.519851 0.249156
525.1963
555.2863
841.4302
898.9437
1006.7164
1006.8043
0.300136 0.519851 -0.311445
528.4581
528.4581
873.2756
873.2756
1013.4548
1013.4548
P	=	13999.93	V	=	60.89484	E	=	-653.70370321
0.0 0.0 0.0
-0.0
0.0
0.0
551.8008
551.8008
1177.1068
0.0 0.0 0.062273
84.0284
84.0284
205.8331
545.7674
545.7674
1164.1226
0.0 0.0 0.124546
165.2367
165.2367
402.9359
526.6783
526.6783
1126.0894
0.0 0.0 0.186819
242.3986
242.3986
492.8441
492.8441
583.412
1064.8098
0.0 0.0 0.249091
315.5292
315.5292
444.3011
444.3011
741.3401
981.0784
0.0 0.0 -0.311364
383.8255
383.8255
383.8255
383.8255
873.8346
873.8346
0.0 0.115534 0.0
159.9331
164.1984
364.371
578.5276
626.1015
1154.091
0.0 0.115534 0.062273
185.2894
200.1704
405.4533
572.6223
619.6509
1143.2979
0.0 0.115534 0.124546
235.4738
266.878
513.2618
554.2214
599.6957
1111.2593
0.0 0.115534 0.186819
296.7848
331.3373
522.2628
563.9983
648.0524
1058.6009
0.0 0.115534 0.249091
360.3735
395.0085
477.2073
515.7627
777.8995
985.5235
0.0 0.115534 -0.311364
421.8584
421.8584
457.6632
457.6632
891.7725
891.7725
0.0 0.231068 0.0
305.6622
305.9415
639.0447
664.0451
786.4329
1089.4472
0.0 0.231068 0.062273
318.7041
323.737
633.4151
682.8567
777.1956
1086.2585
0.0 0.231068 0.124546
352.7247
368.916
616.3696
721.2509
761.8206
1074.56
0.0 0.231068 0.186819
399.3092
427.7504
587.8987
691.2704
815.4016
1050.1022
0.0 0.231068 0.249091
450.9035
493.8041
549.0242
631.8544
888.0371
1010.1693
0.0 0.231068 -0.311364
502.1923
502.1923
563.5659
563.5659
955.1174
955.1174
0.0 0.346602 0.0
408.4283
429.88
699.9341
857.5383
949.1253
996.381
0.0 0.346602 0.062273
418.6286
436.598
694.5057
859.7258
923.6684
1023.837
0.0 0.346602 0.124546
446.589
456.8004
678.4087
826.4045
930.6441
1055.0239
0.0 0.346602 0.186819
486.2184
491.7693
652.3067
760.908
970.4311
1070.2999
0.0 0.346602 0.249091
531.1223
543.4768
617.5283
685.9916
1012.3432
1066.7914
0.0 0.346602 -0.311364
576.1706
576.1706
610.4858
610.4858
1046.2168
1046.2168
0.0 0.462135 0.0
466.4416
529.1728
741.0871
899.15
960.0927
1054.9959
0.0 0.462135 0.062273
475.6778
528.6576
735.6857
872.9383
977.5718
1069.9339
0.0 0.462135 0.124546
501.1981
530.0529
719.8134
819.9408
1012.2072
1098.4279
0.0 0.462135 0.186819
537.7744
541.1526
694.4419
755.7595
1051.776
1119.8414
0.0 0.462135 0.249091
570.6168
579.6287
661.1232
686.5779
1087.7314
1125.296
0.0 0.462135 -0.311364
621.2259
621.2259
621.948
621.948
1113.7014
1113.7014
0.0 -0.577669 0.0
484.5384
576.4362
755.2918
848.9919
992.8785
1088.6551
0.0 -0.577669 0.062273
493.532
572.2548
749.8637
833.9353
1005.1054
1099.9461
0.0 -0.577669 0.124546
518.4127
564.3417
733.9462
794.7525
1036.2982
1123.6456
0.0 -0.577669 0.186819
554.1468
563.6888
708.6023
740.5162
1074.9397
1143.0239
0.0 -0.577669 0.249091
581.5757
595.1531
675.4912
679.3768
1110.7102
1148.144
0.0 -0.577669 -0.311364
622.2855
622.2855
636.7737
636.7737
1136.6326
1136.6326
0.100055 0.173301 0.0
268.8362
293.3529
550.5617
666.1584
726.6561
1110.2519
0.100055 0.173301 0.062273
288.2304
306.3283
568.389
667.9741
718.3192
1104.1749
0.100055 0.173301 0.124546
334.8274
340.6795
592.1014
693.2179
693.9405
1084.9477
0.100055 0.173301 0.186819
387.1435
392.6276
580.0732
652.019
765.7794
1050.474
0.100055 0.173301 0.249091
437.1726
452.4536
549.4623
598.2609
851.7158
999.3458
0.100055 0.173301 -0.311364
477.9557
477.9557
544.5818
544.5818
932.0758
932.0758
0.100055 0.288835 0.0
389.9021
418.9791
660.1609
823.1619
874.907
1031.1484
0.100055 0.288835 0.062273
393.6437
430.8319
664.1354
820.6159
867.8363
1038.6712
0.100055 0.288835 0.124546
410.2126
459.929
666.3406
790.876
880.1191
1050.2808
0.100055 0.288835 0.186819
443.4445
497.7565
654.7197
735.9923
919.3021
1051.5378
0.100055 0.288835 0.249091
490.7415
534.1796
631.8804
674.9422
965.4692
1036.7956
0.100055 0.288835 -0.311364
536.2859
536.2859
629.3247
629.3247
1006.7985
1006.7985
0.100055 0.404368 0.0
497.805
500.2714
734.4131
921.2887
933.9064
1008.7134
0.100055 0.404368 0.062273
485.2748
519.8314
732.7622
881.4767
957.4233
1028.556
0.100055 0.404368 0.124546
480.6829
547.7631
722.3752
827.2899
986.0008
1061.5874
0.100055 0.404368 0.186819
490.5423
580.2399
696.2352
773.7075
1020.4363
1084.0775
0.100055 0.404368 0.249091
519.5695
598.9299
668.398
727.0008
1053.5206
1089.4554
0.100055 0.404368 -0.311364
564.5806
564.5806
687.4769
687.4769
1078.1527
1078.1527
0.100055 0.519902 0.0
538.71
577.9354
773.4451
851.0313
971.3225
1072.2814
0.100055 0.519902 0.062273
534.7349
584.272
761.8745
842.0702
985.3618
1081.9857
0.100055 0.519902 0.124546
526.1162
603.7409
729.3594
820.9579
1018.3183
1103.3627
0.100055 0.519902 0.186819
523.3059
632.1807
684.4068
791.6684
1057.0109
1121.7092
0.100055 0.519902 0.249091
537.4785
621.0228
679.1289
756.1209
1091.8508
1127.0398
0.100055 0.519902 -0.311364
572.641
572.641
717.1178
717.1178
1116.5225
1116.5225
0.20011 0.346602 0.0
487.2532
554.2387
717.9103
912.781
946.7141
971.8733
0.20011 0.346602 0.062273
481.0305
560.9331
728.1586
865.9819
975.1408
987.1499
0.20011 0.346602 0.124546
472.4188
578.3686
745.5853
803.9196
986.8613
1028.8588
0.20011 0.346602 0.186819
477.0273
596.4449
746.2209
751.4416
1007.9748
1054.2477
0.20011 0.346602 0.249091
502.891
589.3981
715.9054
741.8784
1032.6681
1061.3749
0.20011 0.346602 -0.311364
546.952
546.952
724.1958
724.1958
1052.6142
1052.6142
0.20011 0.462135 0.0
580.3557
641.9026
790.952
854.319
935.9899
1037.6865
0.20011 0.462135 0.062273
563.9226
650.811
788.1051
837.389
962.6341
1040.869
0.20011 0.462135 0.124546
535.7255
661.167
758.9664
838.3233
1001.574
1052.5123
0.20011 0.462135 0.186819
517.6185
642.1963
748.7645
838.811
1033.2344
1069.1465
0.20011 0.462135 0.249091
520.9474
594.6744
770.6887
824.5773
1058.3828
1078.4903
0.20011 0.462135 -0.311364
548.8467
548.8467
799.6706
799.6706
1074.6152
1074.6152
0.20011 0.577669 0.0
633.5369
670.1011
799.6725
829.8786
934.0391
1057.0128
0.20011 0.577669 0.062273
606.844
691.9412
756.3356
861.524
948.6082
1059.8852
0.20011 0.577669 0.124546
568.8706
697.8407
723.1851
882.5723
983.6778
1069.4015
0.20011 0.577669 0.186819
540.5526
639.9007
757.1084
879.2843
1023.5846
1081.6576
0.20011 0.577669 0.249091
532.2557
587.681
793.1871
858.715
1057.2398
1086.9367
0.20011 0.577669 -0.311364
548.985
548.985
828.3775
828.3775
1079.0964
1079.0964
0.300166 0.519902 0.0
666.5023
763.5109
769.1737
845.534
898.1814
1038.5176
0.300166 0.519902 0.062273
643.357
726.244
784.1292
868.1451
924.1394
1034.4297
0.300166 0.519902 0.124546
599.1623
670.4545
803.0224
907.9901
970.2124
1025.6218
0.300166 0.519902 0.186819
560.3147
615.4226
830.0769
930.1355
1009.1906
1023.3201
0.300166 0.519902 0.249091
539.3789
570.1545
862.5275
921.4158
1032.7383
1033.0219
0.300166 0.519902 -0.311364
542.7417
542.7417
895.118
895.118
1039.6459
1039.6459
P	=	14999.84	V	=	59.60591	E	=	-653.57669766
0.0 0.0 0.0
-0.0
-0.0
0.0
563.9755
563.9755
1207.8687
0.0 0.0 0.062257
85.8199
85.8199
211.0399
557.903
557.903
1194.5214
0.0 0.0 0.124513
168.7776
168.7776
413.1089
538.596
538.596
1155.4115
0.0 0.0 0.18677
247.6659
247.6659
504.1638
504.1638
598.1312
1092.379
0.0 0.0 0.249027
322.5407
322.5407
454.5306
454.5306
760.0927
1006.2725
0.0 0.0 -0.311284
392.5506
392.5506
392.5506
392.5506
896.0811
896.0811
0.0 0.115546 0.0
163.8494
167.6849
372.9057
591.2893
639.6214
1184.1754
0.0 0.115546 0.062257
189.2024
205.0037
415.12
585.3076
633.1069
1173.1087
0.0 0.115546 0.124513
240.4251
272.8663
525.9518
566.6093
612.8959
1140.2196
0.0 0.115546 0.18677
303.0688
338.4291
534.0
576.5125
664.4083
1086.0896
0.0 0.115546 0.249027
368.1404
403.4575
487.8817
527.189
797.6722
1010.9354
0.0 0.115546 -0.311284
431.1469
431.1469
467.6465
467.6465
914.5843
914.5843
0.0 0.231091 0.0
312.7405
312.9049
653.3075
679.9439
803.7834
1117.6486
0.0 0.231091 0.062257
325.7347
331.5887
647.5457
699.1618
794.4732
1114.4038
0.0 0.231091 0.124513
360.3929
377.8908
630.0891
737.7794
779.8096
1102.4053
0.0 0.231091 0.18677
407.9035
437.7632
600.9107
706.7408
835.5774
1077.1837
0.0 0.231091 0.249027
460.605
504.9992
561.0612
646.0778
910.2629
1035.9738
0.0 0.231091 -0.311284
513.0819
513.0819
576.2456
576.2456
979.2583
979.2583
0.0 0.346637 0.0
418.196
439.8184
715.9463
878.4188
972.0207
1021.8651
0.0 0.346637 0.062257
428.5884
446.9502
710.3753
880.3407
946.6306
1049.6683
0.0 0.346637 0.124513
457.0716
468.0308
693.8595
846.1952
953.906
1081.5932
0.0 0.346637 0.18677
497.4432
503.9267
667.0957
779.3298
994.5018
1097.1812
0.0 0.346637 0.249027
543.2151
556.7464
631.4786
702.6462
1037.4025
1093.4227
0.0 0.346637 -0.311284
589.1937
589.1937
625.298
625.298
1072.1795
1072.1795
0.0 0.462182 0.0
478.4375
541.4798
758.4094
921.6868
984.3905
1082.1511
0.0 0.462182 0.062257
487.8759
541.1781
752.8905
894.8218
1002.2525
1097.4613
0.0 0.462182 0.124513
513.9174
543.0463
736.6704
840.5574
1037.5337
1126.6502
0.0 0.462182 0.18677
551.1691
554.7036
710.7475
774.825
1077.8606
1148.4359
0.0 0.462182 0.249027
584.9675
593.7476
676.7369
703.8947
1114.6556
1153.6938
0.0 0.462182 -0.311284
636.8129
636.8129
636.8584
636.8584
1141.4584
1141.4584
0.0 -0.577728 0.0
497.3904
590.0598
773.0872
869.9152
1018.5397
1117.2929
0.0 -0.577728 0.062257
506.5966
585.968
767.5575
854.5809
1030.8806
1128.8625
0.0 -0.577728 0.124513
532.0116
578.2399
751.3342
814.6297
1062.4395
1153.0769
0.0 -0.577728 0.18677
568.4058
577.8432
725.4963
759.2142
1101.701
1172.6581
0.0 -0.577728 0.249027
596.2825
610.0823
691.7614
696.6049
1138.2951
1177.4242
0.0 -0.577728 -0.311284
638.0578
638.0578
652.3724
652.3724
1165.1329
1165.1329
0.100065 0.173318 0.0
275.275
299.4635
563.3128
681.4586
742.4237
1139.0643
0.100065 0.173318 0.062257
295.2821
312.6947
581.3902
683.5244
733.9795
1132.8629
0.100065 0.173318 0.124513
342.9035
347.7397
605.1857
708.5068
710.819
1113.163
0.100065 0.173318 0.18677
395.1837
401.5989
592.7303
666.5645
784.8854
1077.7003
0.100065 0.173318 0.249027
446.3256
462.4036
561.4233
611.656
873.2148
1025.0369
0.100065 0.173318 -0.311284
488.0992
488.0992
556.6954
556.6954
955.811
955.811
0.100065 0.288864 0.0
399.0156
428.0148
674.8801
842.8738
895.6009
1057.7033
0.100065 0.288864 0.062257
403.0665
440.1408
678.8142
839.9389
888.9485
1065.3304
0.100065 0.288864 0.124513
420.2625
469.8803
680.9097
809.3384
902.1178
1077.0952
0.100065 0.288864 0.18677
454.1153
508.4881
669.0698
753.3623
942.2928
1078.2044
0.100065 0.288864 0.249027
502.1015
545.651
646.0329
690.8286
989.5772
1062.8766
0.100065 0.288864 -0.311284
548.1197
548.1197
643.85
643.85
1031.9749
1031.9749
0.100065 0.40441 0.0
509.4138
511.9207
751.064
944.1078
957.6592
1034.2204
0.100065 0.40441 0.062257
496.8023
531.9461
749.3404
903.4112
981.6881
1054.5286
0.100065 0.40441 0.124513
492.4463
560.5285
738.8105
847.7753
1010.8812
1088.3812
0.100065 0.40441 0.18677
502.6852
593.6361
712.5329
792.504
1045.9428
1111.336
0.100065 0.40441 0.249027
532.2952
612.748
684.4521
744.198
1079.6687
1116.6508
0.100065 0.40441 -0.311284
578.1217
578.1217
703.6481
703.6481
1104.9063
1104.9063
0.100065 0.519955 0.0
552.0499
591.6998
791.3431
872.27
996.1885
1100.1824
0.100065 0.519955 0.062257
547.9188
598.4259
779.6933
862.9334
1010.4276
1110.1414
0.100065 0.519955 0.124513
539.1742
618.5778
746.8456
840.977
1043.8733
1131.9817
0.100065 0.519955 0.18677
536.4339
647.6162
701.2271
810.7241
1083.2144
1150.503
0.100065 0.519955 0.249027
550.9816
636.3619
695.6544
774.2054
1118.8153
1155.5112
0.100065 0.519955 -0.311284
586.9521
586.9521
734.3176
734.3176
1144.3002
1144.3002
0.200131 0.346637 0.0
498.7
566.0753
733.996
934.6365
970.9814
996.7569
0.200131 0.346637 0.062257
492.5675
572.9155
744.2842
887.324
1000.1674
1011.8802
0.200131 0.346637 0.124513
484.1009
590.7161
761.8243
823.994
1012.2215
1054.5501
0.200131 0.346637 0.18677
488.8625
609.214
764.9236
767.7945
1033.6593
1080.4924
0.200131 0.346637 0.249027
515.0968
602.562
733.1422
758.2686
1058.6078
1087.7158
0.200131 0.346637 -0.311284
559.8206
559.8206
740.6794
740.6794
1078.7887
1078.7887
0.200131 0.462182 0.0
594.3475
656.4703
809.0767
876.0641
959.3168
1064.2834
0.200131 0.462182 0.062257
577.6239
665.5936
806.5907
858.1206
986.6719
1067.5829
0.200131 0.462182 0.124513
548.9685
676.2106
777.7576
857.7777
1026.6091
1079.4148
0.200131 0.462182 0.18677
530.554
657.3463
766.8817
857.9424
1058.9648
1096.0746
0.200131 0.462182 0.249027
533.9365
609.1442
788.7178
843.3896
1084.5141
1105.2539
0.200131 0.462182 -0.311284
562.3955
562.3955
818.0548
818.0548
1101.0784
1101.0784
0.200131 0.577728 0.0
649.1384
685.94
819.8341
849.0673
957.678
1083.9505
0.200131 0.577728 0.062257
621.7258
708.4739
774.9678
881.895
972.4709
1086.9554
0.200131 0.577728 0.124513
582.9463
715.0713
740.493
903.347
1008.0846
1096.6937
0.200131 0.577728 0.18677
554.0639
655.7959
775.0842
899.8813
1048.6403
1108.9387
0.200131 0.577728 0.249027
545.6217
602.3622
811.7929
878.7369
1082.9518
1113.8719
0.200131 0.577728 -0.311284
562.7556
562.7556
847.6721
847.6721
1105.4582
1105.4582
0.300196 0.519955 0.0
683.1376
781.4594
788.7371
865.8419
920.1745
1064.3212
0.300196 0.519955 0.062257
659.4007
744.1335
803.1155
888.9421
946.8043
1060.1655
0.300196 0.519955 0.124513
614.134
687.0631
822.2321
929.4991
993.9347
1051.1692
0.300196 0.519955 0.18677
574.3834
630.7402
849.6465
951.8824
1033.6794
1048.6158
0.300196 0.519955 0.249027
552.9618
584.4213
882.5759
942.8188
1057.6171
1058.1164
0.300196 0.519955 -0.311284
556.3866
556.3866
915.8211
915.8211
1064.6622
1064.6622

weight
   0.0000000   0.0000000   0.0000000   0.0020000   
   0.0000000   0.0000000   0.1000000   0.0040000   
   0.0000000   0.0000000   0.2000000   0.0040000   
   0.0000000   0.0000000   0.3000000   0.0040000   
   0.0000000   0.0000000   0.4000000   0.0040000   
   0.0000000   0.0000000  -0.5000000   0.0020000   
   0.0000000   0.1000000   0.0000000   0.0120000   
   0.0000000   0.1000000   0.1000000   0.0240000   
   0.0000000   0.1000000   0.2000000   0.0240000   
   0.0000000   0.1000000   0.3000000   0.0240000   
   0.0000000   0.1000000   0.4000000   0.0240000   
   0.0000000   0.1000000  -0.5000000   0.0120000   
   0.0000000   0.2000000   0.0000000   0.0120000   
   0.0000000   0.2000000   0.1000000   0.0240000   
   0.0000000   0.2000000   0.2000000   0.0240000   
   0.0000000   0.2000000   0.3000000   0.0240000   
   0.0000000   0.2000000   0.4000000   0.0240000   
   0.0000000   0.2000000  -0.5000000   0.0120000   
   0.0000000   0.3000000   0.0000000   0.0120000   
   0.0000000   0.3000000   0.1000000   0.0240000   
   0.0000000   0.3000000   0.2000000   0.0240000   
   0.0000000   0.3000000   0.3000000   0.0240000   
   0.0000000   0.3000000   0.4000000   0.0240000   
   0.0000000   0.3000000  -0.5000000   0.0120000   
   0.0000000   0.4000000   0.0000000   0.0120000   
   0.0000000   0.4000000   0.1000000   0.0240000   
   0.0000000   0.4000000   0.2000000   0.0240000   
   0.0000000   0.4000000   0.3000000   0.0240000   
   0.0000000   0.4000000   0.4000000   0.0240000   
   0.0000000   0.4000000  -0.5000000   0.0120000   
   0.0000000  -0.5000000   0.0000000   0.0060000   
   0.0000000  -0.5000000   0.1000000   0.0120000   
   0.0000000  -0.5000000   0.2000000   0.0120000   
   0.0000000  -0.5000000   0.3000000   0.0120000   
   0.0000000  -0.5000000   0.4000000   0.0120000   
   0.0000000  -0.5000000  -0.5000000   0.0060000   
   0.1000000   0.1000000   0.0000000   0.0120000   
   0.1000000   0.1000000   0.1000000   0.0240000   
   0.1000000   0.1000000   0.2000000   0.0240000   
   0.1000000   0.1000000   0.3000000   0.0240000   
   0.1000000   0.1000000   0.4000000   0.0240000   
   0.1000000   0.1000000  -0.5000000   0.0120000   
   0.1000000   0.2000000   0.0000000   0.0240000   
   0.1000000   0.2000000   0.1000000   0.0480000   
   0.1000000   0.2000000   0.2000000   0.0480000   
   0.1000000   0.2000000   0.3000000   0.0480000   
   0.1000000   0.2000000   0.4000000   0.0480000   
   0.1000000   0.2000000  -0.5000000   0.0240000   
   0.1000000   0.3000000   0.0000000   0.0240000   
   0.1000000   0.3000000   0.1000000   0.0480000   
   0.1000000   0.3000000   0.2000000   0.0480000   
   0.1000000   0.3000000   0.3000000   0.0480000   
   0.1000000   0.3000000   0.4000000   0.0480000   
   0.1000000   0.3000000  -0.5000000   0.0240000   
   0.1000000   0.4000000   0.0000000   0.0240000   
   0.1000000   0.4000000   0.1000000   0.0480000   
   0.1000000   0.4000000   0.2000000   0.0480000   
   0.1000000   0.4000000   0.3000000   0.0480000   
   0.1000000   0.4000000   0.4000000   0.0480000   
   0.1000000   0.4000000  -0.5000000   0.0240000   
   0.2000000   0.2000000   0.0000000   0.0120000   
   0.2000000   0.2000000   0.1000000   0.0240000   
   0.2000000   0.2000000   0.2000000   0.0240000   
   0.2000000   0.2000000   0.3000000   0.0240000   
   0.2000000   0.2000000   0.4000000   0.0240000   
   0.2000000   0.2000000  -0.5000000   0.0120000   
   0.2000000   0.3000000   0.0000000   0.0240000   
   0.2000000   0.3000000   0.1000000   0.0480000   
   0.2000000   0.3000000   0.2000000   0.0480000   
   0.2000000   0.3000000   0.3000000   0.0480000   
   0.2000000   0.3000000   0.4000000   0.0480000   
   0.2000000   0.3000000  -0.5000000   0.0240000   
   0.2000000   0.4000000   0.0000000   0.0120000   
   0.2000000   0.4000000   0.1000000   0.0240000   
   0.2000000   0.4000000   0.2000000   0.0240000   
   0.2000000   0.4000000   0.3000000   0.0240000   
   0.2000000   0.4000000   0.4000000   0.0240000   
   0.2000000   0.4000000  -0.5000000   0.0120000   
   0.3000000   0.3000000   0.0000000   0.0120000   
   0.3000000   0.3000000   0.1000000   0.0240000   
   0.3000000   0.3000000   0.2000000   0.0240000   
   0.3000000   0.3000000   0.3000000   0.0240000   
   0.3000000   0.3000000   0.4000000   0.0240000   
   0.3000000   0.3000000  -0.5000000   0.0120000   