Number of volumes (nv), q-vectors (nq), normal mode (np), formula units(nm)
23 84 6 1

P	=	0.12	V	=	138.5856	E	=	-655.45963394
0.0 0.0 0.0
-0.0
-0.0
0.0
230.5843
230.5843
317.926
0.0 0.0 0.062938
25.5954
25.5954
64.8178
227.0181
227.0181
311.6449
0.0 0.0 0.125875
56.7095
56.7095
128.5867
217.2577
217.2577
297.3753
0.0 0.0 0.188813
92.7322
92.7322
186.6049
202.9451
202.9451
283.9729
0.0 0.0 0.25175
128.7247
128.7247
184.3108
184.3108
231.7778
274.0075
0.0 0.0 -0.314688
159.8418
159.8418
159.931
159.931
259.7903
259.9031
0.0 0.11504 0.0
-12.2964
70.3294
111.1865
238.6082
244.1934
304.8761
0.0 0.11504 0.062938
40.9511
75.6708
121.4078
235.3084
240.1149
299.9147
0.0 0.11504 0.125875
79.2045
92.5305
152.3474
226.3617
228.9742
289.1696
0.0 0.11504 0.188813
113.0792
118.9744
194.7136
213.4703
213.5417
279.5336
0.0 0.11504 0.25175
144.9135
148.658
195.4019
196.9652
233.3257
271.5137
0.0 0.11504 -0.314688
172.493
173.6374
175.49
175.5966
258.2919
258.8428
0.0 0.23008 0.0
58.656
125.0625
196.6199
253.5139
268.8132
274.9882
0.0 0.23008 0.062938
65.553
128.9206
201.8637
250.6755
257.0599
280.3517
0.0 0.23008 0.125875
85.569
140.9421
216.7792
238.3559
243.2613
283.6849
0.0 0.23008 0.188813
114.8401
160.4041
218.9172
233.0775
238.4739
284.6364
0.0 0.23008 0.25175
146.1369
183.0561
199.9262
220.4622
260.552
282.6106
0.0 0.23008 -0.314688
174.0193
178.0442
203.8225
204.0766
274.7923
276.4334
0.0 0.34512 0.0
126.9037
154.6672
243.3055
248.6794
262.1492
281.3015
0.0 0.34512 0.062938
126.2394
157.6126
242.5543
249.112
259.675
284.7203
0.0 0.34512 0.125875
126.0874
167.2901
232.0688
253.3689
260.3843
292.0479
0.0 0.34512 0.188813
133.0905
183.7274
217.1746
245.0911
276.1079
298.7266
0.0 0.34512 0.25175
150.6483
198.7634
203.3482
235.0011
290.4465
301.6275
0.0 0.34512 -0.314688
173.9683
176.6358
221.2155
221.4201
298.9113
299.5797
0.0 0.46016 0.0
161.2509
184.7991
236.0794
258.7922
263.091
277.0832
0.0 0.46016 0.062938
163.2254
180.8103
235.7829
260.7766
264.6831
281.8334
0.0 0.46016 0.125875
171.0592
171.2063
232.943
254.8506
278.3351
293.7426
0.0 0.46016 0.188813
165.3417
186.307
223.8974
247.1267
292.6462
305.6412
0.0 0.46016 0.25175
171.3427
205.8192
208.1662
237.4877
303.5209
311.5044
0.0 0.46016 -0.314688
187.1264
189.3458
223.7814
224.1139
309.7759
310.7505
0.0 -0.5752 0.0
159.8513
212.7169
228.5311
262.2424
262.346
270.3571
0.0 -0.5752 0.062938
161.4797
204.5246
231.9934
259.9881
269.7676
276.1634
0.0 -0.5752 0.125875
168.5719
189.5528
233.1648
254.0504
283.6573
292.8389
0.0 -0.5752 0.188813
179.188
183.5679
227.2226
246.3088
296.5439
308.3134
0.0 -0.5752 0.25175
180.8814
203.5494
214.1513
236.4761
306.5389
314.4962
0.0 -0.5752 -0.314688
193.1604
197.9952
222.1009
222.7161
312.0652
313.878
0.099628 0.17256 0.0
39.0389
117.138
174.6002
251.6172
261.5567
283.2192
0.099628 0.17256 0.062938
50.6242
121.0627
180.7323
248.6821
254.382
283.17
0.099628 0.17256 0.125875
78.7459
133.5878
198.3642
237.6314
240.9522
282.1557
0.099628 0.17256 0.188813
113.6109
153.9937
218.0642
223.675
230.2749
280.5857
0.099628 0.17256 0.25175
147.3456
177.4996
198.4907
217.0734
249.1997
277.205
0.099628 0.17256 -0.314688
174.8029
175.6362
199.8704
200.4403
267.6774
267.8659
0.099628 0.2876 0.0
96.7656
158.1153
224.286
254.2485
266.8262
277.2571
0.099628 0.2876 0.062938
97.453
161.3257
228.8748
246.5516
264.8404
280.9075
0.099628 0.2876 0.125875
102.868
171.4643
230.7761
240.9296
259.4599
287.0613
0.099628 0.2876 0.188813
118.44
187.9346
212.6269
246.8852
262.6458
291.7901
0.099628 0.2876 0.25175
142.2937
192.0815
207.9331
238.4696
277.9399
292.9588
0.099628 0.2876 -0.314688
167.6796
169.8025
224.9473
225.6499
288.4471
289.1649
0.099628 0.40264 0.0
155.1045
175.8059
234.059
246.1963
271.0838
283.4371
0.099628 0.40264 0.062938
152.5298
178.6882
232.1224
250.1389
272.1676
284.5812
0.099628 0.40264 0.125875
147.3439
187.4206
225.4117
257.0033
274.4271
291.2875
0.099628 0.40264 0.188813
146.7255
201.8961
213.1388
255.1783
284.6028
299.8384
0.099628 0.40264 0.25175
156.4881
195.239
219.8889
247.6969
295.9492
304.4256
0.099628 0.40264 -0.314688
174.6158
174.9479
235.7439
236.1439
302.9688
303.1989
0.099628 0.51768 0.0
177.0191
196.1267
222.8161
254.6404
264.0212
283.3751
0.099628 0.51768 0.062938
177.0685
192.984
224.9542
258.0539
268.8362
283.6746
0.099628 0.51768 0.125875
173.889
192.216
224.5534
261.7532
279.753
290.6404
0.099628 0.51768 0.188813
168.4606
203.4371
216.926
257.4942
292.1892
302.5573
0.099628 0.51768 0.25175
171.6894
202.7665
220.4456
249.1371
301.9402
308.857
0.099628 0.51768 -0.314688
183.5702
186.8826
236.745
236.8374
307.2684
308.7316
0.199255 0.34512 0.0
136.5923
193.2162
230.2611
234.7596
275.8852
286.5406
0.199255 0.34512 0.062938
135.407
195.5946
227.7246
239.3656
278.7642
284.4294
0.199255 0.34512 0.125875
133.7331
203.4387
219.2355
250.4174
280.1848
286.3171
0.199255 0.34512 0.188813
136.6704
204.0506
218.0609
258.7091
280.4581
294.0792
0.199255 0.34512 0.25175
147.9277
186.144
233.7645
256.2994
288.7998
297.8568
0.199255 0.34512 -0.314688
165.4776
166.5284
247.1692
247.6985
295.9451
296.0504
0.199255 0.46016 0.0
169.012
208.8257
210.7105
242.828
267.3982
296.9868
0.199255 0.46016 0.062938
167.3242
210.4331
212.9918
247.0422
270.4504
294.9857
0.199255 0.46016 0.125875
162.5578
209.8147
219.725
257.7687
278.9849
291.3516
0.199255 0.46016 0.188813
158.7188
201.0875
231.7992
266.212
286.4859
293.3479
0.199255 0.46016 0.25175
161.1853
186.608
245.902
265.1879
292.897
298.0758
0.199255 0.46016 -0.314688
170.8422
171.9564
257.8257
257.8658
297.522
298.0986
0.199255 0.5752 0.0
186.117
198.907
210.0313
253.5052
257.0881
299.6165
0.199255 0.5752 0.062938
182.8947
202.9968
213.3079
256.3566
261.2838
297.5966
0.199255 0.5752 0.125875
175.4201
205.714
221.7442
265.4132
271.8655
293.9096
0.199255 0.5752 0.188813
168.4488
200.0552
233.9517
271.2228
283.7611
294.5401
0.199255 0.5752 0.25175
167.2607
188.3456
247.7972
268.0168
293.0139
298.1276
0.199255 0.5752 -0.314688
173.8709
176.1909
259.8529
259.8607
297.4521
298.5547
0.298883 0.51768 0.0
174.8839
188.0459
234.9596
242.5852
256.3902
306.9747
0.298883 0.51768 0.062938
176.0469
191.1567
237.015
246.1412
259.023
304.517
0.298883 0.51768 0.125875
175.2779
192.8967
243.9573
256.4788
267.6404
298.8261
0.298883 0.51768 0.188813
170.9008
187.3837
254.8185
268.4511
278.5622
293.2502
0.298883 0.51768 0.25175
167.3493
177.7427
266.2072
275.5772
286.0003
289.9489
0.298883 0.51768 -0.314688
169.2159
169.6533
274.1515
274.4638
288.8092
288.8844
P	=	499.88	V	=	121.46721	E	=	-655.43389527
0.0 0.0 0.0
0.0
0.0
0.0
274.1987
274.1987
427.3636
0.0 0.0 0.062742
26.4854
26.4854
79.163
269.4153
269.4153
418.9355
0.0 0.0 0.125484
62.7287
62.7287
158.6786
256.7571
256.7571
399.0108
0.0 0.0 0.188226
107.0459
107.0459
233.3732
239.2755
239.2755
378.0491
0.0 0.0 0.250968
151.4678
151.4678
217.5761
217.5761
294.1819
359.5189
0.0 0.0 -0.31371
189.0331
189.0331
189.0449
189.0449
335.151
335.2139
0.0 0.115016 0.0
15.0182
79.8286
137.5202
283.5998
292.824
412.0408
0.0 0.115016 0.062742
51.1625
85.5371
150.6131
279.1615
287.9534
405.1921
0.0 0.115016 0.125484
94.2052
105.1276
190.3603
267.5528
274.6561
389.1919
0.0 0.115016 0.188226
134.9362
137.6557
245.1956
251.7374
256.2485
372.3269
0.0 0.115016 0.250968
173.8142
174.4362
232.3655
234.2627
296.9435
356.2141
0.0 0.115016 -0.31371
207.0374
207.1616
207.2884
207.739
333.5483
334.0493
0.0 0.230032 0.0
78.1257
144.1901
247.4352
302.6709
330.4822
376.0143
0.0 0.230032 0.062742
84.8618
148.5452
254.4515
298.9775
322.4677
376.1703
0.0 0.230032 0.125484
108.1674
163.0678
274.2053
289.3507
302.5374
375.4306
0.0 0.230032 0.188226
144.3545
187.4064
276.5321
277.7246
302.3183
372.5964
0.0 0.230032 0.250968
183.7732
215.8509
251.3054
261.1566
331.3314
365.8425
0.0 0.230032 -0.31371
219.5027
221.479
241.2307
241.5328
352.1154
353.9505
0.0 0.345048 0.0
157.362
183.2033
315.2407
317.572
340.646
360.0407
0.0 0.345048 0.062742
156.7754
186.5514
314.3601
319.794
329.7569
369.869
0.0 0.345048 0.125484
158.3648
198.243
306.0756
306.7285
337.6402
382.601
0.0 0.345048 0.188226
169.3669
218.7424
283.2061
295.3051
357.1366
390.8024
0.0 0.345048 0.250968
192.8908
243.45
255.8447
282.4487
375.3258
392.4743
0.0 0.345048 -0.31371
223.8017
224.8547
265.3944
265.8618
386.978
387.986
0.0 0.460064 0.0
197.8759
227.5039
317.3896
324.4728
346.1793
371.6696
0.0 0.460064 0.062742
200.0738
223.9555
314.3738
321.3431
353.0796
377.6509
0.0 0.460064 0.125484
209.1334
215.151
305.9368
313.4394
368.4616
392.3361
0.0 0.460064 0.188226
210.188
227.5247
290.663
303.2792
385.6196
406.056
0.0 0.460064 0.250968
218.7246
251.5686
267.8744
290.9025
399.9662
412.1532
0.0 0.460064 -0.31371
240.4156
241.355
273.8432
274.1499
409.0123
410.0335
0.0 -0.57508 0.0
200.0651
261.2455
304.5457
326.1915
354.6514
372.7226
0.0 -0.57508 0.062742
201.6846
254.093
306.8175
323.0397
361.5442
378.8004
0.0 -0.57508 0.125484
209.5435
239.1804
305.6847
315.1266
376.8251
395.4354
0.0 -0.57508 0.188226
227.2511
228.31
295.2543
304.9492
393.3002
411.6249
0.0 -0.57508 0.250968
231.5579
251.5452
275.6112
292.3765
407.1811
418.6137
0.0 -0.57508 -0.31371
249.7153
251.5585
274.633
274.9749
415.2763
417.3916
0.099607 0.172524 0.0
56.4925
134.8359
217.7881
300.6943
318.4393
386.2179
0.099607 0.172524 0.062742
67.8607
139.432
226.0326
296.8602
312.0419
383.3411
0.099607 0.172524 0.125484
98.9615
154.5653
249.1776
286.9612
294.8801
376.8703
0.099607 0.172524 0.188226
140.2355
179.7508
271.8878
272.5163
283.3838
369.6404
0.099607 0.172524 0.250968
181.3273
208.7825
246.8252
257.2883
316.8733
360.2273
0.099607 0.172524 -0.31371
215.1077
216.2164
237.339
237.8096
343.6383
343.7379
0.099607 0.28754 0.0
122.2946
185.8292
282.2986
326.6935
347.7392
349.8184
0.099607 0.28754 0.062742
122.8407
189.8408
287.8403
322.5767
330.1824
364.3143
0.099607 0.28754 0.125484
129.5999
202.5638
297.9923
303.3139
323.8648
374.8777
0.099607 0.28754 0.188226
149.3596
222.9319
276.2968
297.4129
336.9105
380.1425
0.099607 0.28754 0.250968
179.9498
240.336
254.3201
286.3642
356.779
379.2886
0.099607 0.28754 -0.31371
213.0993
214.4941
270.1823
270.6701
371.2825
372.1904
0.099607 0.402556 0.0
191.9578
212.6125
313.14
319.648
345.888
368.5784
0.099607 0.402556 0.062742
188.9108
216.5413
311.4558
317.1768
349.5115
372.8516
0.099607 0.402556 0.125484
183.551
227.7032
296.4772
319.3558
357.8051
384.3932
0.099607 0.402556 0.188226
184.1838
245.2704
276.8551
314.1543
372.4224
395.1618
0.099607 0.402556 0.250968
197.4689
248.4181
270.2469
303.8297
387.0032
399.6771
0.099607 0.402556 -0.31371
221.3422
221.9603
288.8888
288.9785
396.6986
396.8092
0.099607 0.517572 0.0
219.9557
243.293
298.7281
325.9633
350.863
377.3274
0.099607 0.517572 0.062742
219.4822
241.2411
297.6399
327.9131
356.8133
379.879
0.099607 0.517572 0.125484
215.9207
241.8708
291.0304
328.7193
370.7981
390.4643
0.099607 0.517572 0.188226
211.0615
254.4414
277.783
322.5051
386.7079
403.8254
0.099607 0.517572 0.250968
215.9901
257.0244
275.3496
311.1637
400.0784
410.6207
0.099607 0.517572 -0.31371
233.1383
234.4841
295.0579
295.4377
407.9682
409.5909
0.199214 0.345048 0.0
170.4357
232.7014
297.246
317.604
354.6605
362.731
0.199214 0.345048 0.062742
168.7912
235.9921
302.729
309.5931
360.8645
361.9314
0.199214 0.345048 0.125484
166.4186
245.8415
292.4652
314.2314
358.6618
375.0989
0.199214 0.345048 0.188226
170.1123
255.9102
276.4165
319.4078
364.311
385.4143
0.199214 0.345048 0.250968
185.1727
237.7595
287.0581
314.3544
376.423
389.3016
0.199214 0.345048 -0.31371
209.5025
210.4998
302.7596
303.1584
385.9871
386.0984
0.199214 0.460064 0.0
212.857
258.3372
287.7277
313.0929
350.3164
383.6242
0.199214 0.460064 0.062742
210.1782
261.2316
286.2327
318.7156
355.2497
381.8363
0.199214 0.460064 0.125484
203.2224
265.953
282.8152
330.8447
366.5062
380.6922
0.199214 0.460064 0.188226
197.5662
256.0538
291.9211
336.9875
376.0682
387.5951
0.199214 0.460064 0.250968
200.3776
235.7592
308.0978
332.9796
385.9327
393.5757
0.199214 0.460064 -0.31371
214.1986
214.7457
322.7649
322.8877
392.5312
393.1056
0.199214 0.57508 0.0
236.4427
263.5005
269.2157
328.3646
340.2295
389.9618
0.199214 0.57508 0.062742
231.1392
268.9112
269.8228
333.1282
345.437
388.0668
0.199214 0.57508 0.125484
220.1987
265.5673
280.8003
343.5437
358.8782
386.1672
0.199214 0.57508 0.188226
210.2576
253.4564
296.3652
346.2511
374.61
390.5028
0.199214 0.57508 0.250968
208.0311
235.7872
313.5339
340.0062
387.3775
395.4397
0.199214 0.57508 -0.31371
217.268
218.3223
328.6982
328.9353
394.0614
395.2628
0.298821 0.517572 0.0
227.9473
254.5748
296.5587
316.0584
335.0849
396.2473
0.298821 0.517572 0.062742
227.1566
254.3387
300.1541
321.8486
339.8077
393.0876
0.298821 0.517572 0.125484
222.0822
249.0344
310.1719
336.7208
353.0823
385.7341
0.298821 0.517572 0.188226
213.3868
236.8545
324.1392
351.593
367.9211
379.0834
0.298821 0.517572 0.250968
207.0838
221.5186
338.7959
356.3471
377.3872
378.2777
0.298821 0.517572 -0.31371
209.3861
209.6464
350.3723
350.5617
380.0928
380.1798
P	=	999.91	V	=	111.52554	E	=	-655.384364
0.0 0.0 0.0
-0.0
-0.0
0.0
304.3047
304.3047
501.9876
0.0 0.0 0.062678
29.5061
29.5061
89.2772
298.917
298.917
492.0984
0.0 0.0 0.125357
69.7995
69.7995
179.8244
284.7014
284.7014
468.374
0.0 0.0 0.188035
118.9807
118.9807
265.1977
265.1977
266.0908
442.447
0.0 0.0 0.250714
168.1785
168.1785
241.1769
241.1769
337.6199
418.3645
0.0 0.0 -0.313392
209.6787
209.6787
209.7003
209.7003
387.2602
387.4084
0.0 0.115065 0.0
25.9515
86.9403
156.7409
314.8768
326.5787
485.0361
0.0 0.115065 0.062678
60.4912
93.5051
172.5393
309.9519
321.2911
477.026
0.0 0.115065 0.125357
107.3437
115.8579
218.5785
296.9648
306.8812
457.8794
0.0 0.115065 0.188035
152.0697
152.3194
279.2046
281.4804
286.5548
436.5566
0.0 0.115065 0.250714
193.1932
194.4048
257.4864
261.7499
341.7295
415.1387
0.0 0.115065 -0.313392
229.3431
229.4257
231.269
231.9343
386.1437
386.4616
0.0 0.230131 0.0
93.1893
158.6086
284.203
337.0286
373.4432
444.4855
0.0 0.230131 0.062678
101.7413
163.8904
293.1306
332.9091
365.7374
443.6653
0.0 0.230131 0.125357
128.0581
180.5964
316.7217
322.1692
345.4666
441.0329
0.0 0.230131 0.188035
167.1713
207.6898
307.6672
317.7711
348.9534
435.6322
0.0 0.230131 0.250714
209.6952
239.0269
286.8303
290.1439
381.6672
425.305
0.0 0.230131 -0.313392
249.5914
252.0139
267.5127
267.7076
407.3191
408.4162
0.0 0.345196 0.0
179.6124
204.6154
355.9557
366.1498
402.5161
414.7171
0.0 0.345196 0.062678
179.9508
208.6749
352.3137
371.5259
386.1379
430.3914
0.0 0.345196 0.125357
183.3761
221.9435
342.9667
357.1855
393.3007
446.5757
0.0 0.345196 0.188035
196.1489
244.4552
328.7685
330.6174
415.0113
455.7148
0.0 0.345196 0.250714
221.9019
271.4122
295.4206
315.7779
434.9854
456.3087
0.0 0.345196 -0.313392
256.9928
258.5979
296.2314
296.4405
448.8872
449.4437
0.0 0.460261 0.0
224.7699
257.0869
366.4323
372.1522
406.158
436.9774
0.0 0.460261 0.062678
227.2639
253.5327
362.8457
367.5932
413.7025
444.4352
0.0 0.460261 0.125357
237.2272
245.1473
353.7281
355.7897
430.869
461.1641
0.0 0.460261 0.188035
240.8596
257.186
336.116
341.8804
450.3297
475.831
0.0 0.460261 0.250714
250.919
283.3393
308.1321
327.5409
466.9048
481.6142
0.0 0.460261 -0.313392
275.8207
276.8229
308.1853
308.3496
477.7693
478.2324
0.0 -0.575327 0.0
229.1566
294.2918
355.8686
369.609
417.4937
442.7585
0.0 -0.575327 0.062678
230.9189
287.2707
357.1356
365.9502
424.654
449.3588
0.0 -0.575327 0.125357
239.399
272.1482
353.8966
356.7049
441.3306
466.6671
0.0 -0.575327 0.188035
258.5049
261.0727
340.2096
344.757
460.0952
483.4523
0.0 -0.575327 0.250714
265.306
284.8938
316.2668
330.2152
476.4168
490.5533
0.0 -0.575327 -0.313392
285.9953
288.3318
310.3684
310.5771
486.9407
487.8915
0.099649 0.172598 0.0
70.0562
148.0642
248.9688
335.2957
357.9731
456.1431
0.099649 0.172598 0.062678
82.5073
153.6611
259.1098
331.176
351.6096
452.4598
0.099649 0.172598 0.125357
116.4317
171.256
286.3412
320.5968
333.9114
443.6817
0.099649 0.172598 0.188035
161.0466
199.3835
303.2238
308.6906
326.8137
432.9289
0.099649 0.172598 0.250714
205.4445
231.2972
279.7488
285.9069
365.3395
419.04
0.099649 0.172598 -0.313392
242.279
243.2674
263.9132
264.8292
397.4041
397.4176
0.099649 0.287663 0.0
141.7
206.4362
321.9042
370.4598
396.6999
414.1827
0.099649 0.287663 0.062678
143.2898
211.5158
327.8278
367.8615
381.1411
425.9584
0.099649 0.287663 0.125357
151.9494
226.4887
335.9885
351.0934
374.1194
437.8954
0.099649 0.287663 0.188035
173.3449
248.9661
318.9429
334.0714
390.9144
443.068
0.099649 0.287663 0.250714
206.1477
269.4814
290.7713
320.5197
412.8085
440.4227
0.099649 0.287663 -0.313392
243.252
244.767
301.9315
302.772
429.9314
430.4446
0.099649 0.402729 0.0
218.4275
239.625
356.2781
376.9583
399.9543
428.5464
0.099649 0.402729 0.062678
215.258
244.6422
356.5537
368.796
406.0919
434.9591
0.099649 0.402729 0.125357
210.103
257.823
343.0335
363.8869
417.6525
449.592
0.099649 0.402729 0.188035
211.1695
276.9914
319.854
356.2069
434.5856
461.697
0.099649 0.402729 0.250714
225.6443
283.115
306.9045
343.3339
450.8027
465.8713
0.099649 0.402729 -0.313392
252.7388
253.2676
325.8204
326.1785
461.8193
461.8809
0.099649 0.517794 0.0
250.9364
275.7009
349.9121
371.2407
411.188
444.2098
0.099649 0.517794 0.062678
250.0722
274.3283
346.2078
374.1714
417.9149
447.9179
0.099649 0.517794 0.125357
245.5212
276.9316
335.3727
375.3824
433.8404
460.1899
0.099649 0.517794 0.188035
240.3479
290.887
318.2837
367.9176
452.2269
474.2587
0.099649 0.517794 0.250714
245.9035
292.6926
314.0165
354.1603
467.9616
480.877
0.099649 0.517794 -0.313392
265.2583
266.667
335.6299
335.8444
477.8322
478.6123
0.199299 0.345196 0.0
195.5018
261.4567
339.179
375.8693
408.5211
418.166
0.199299 0.345196 0.062678
194.0759
265.8078
345.5763
363.7605
417.0122
419.8691
0.199299 0.345196 0.125357
192.0623
277.6287
341.7031
357.8538
417.0439
437.1509
0.199299 0.345196 0.188035
195.8024
289.1727
320.5912
361.9909
425.2389
449.1826
0.199299 0.345196 0.250714
211.5722
271.5688
325.8083
355.1512
438.5791
453.0062
0.199299 0.345196 -0.313392
238.8638
239.9524
341.7591
342.2132
448.9885
449.0271
0.199299 0.460261 0.0
244.041
293.6858
339.036
360.0845
406.8037
445.2951
0.199299 0.460261 0.062678
240.7877
297.5857
335.464
367.2134
413.5621
444.1246
0.199299 0.460261 0.125357
232.8364
303.8609
328.6914
380.859
427.5128
445.1057
0.199299 0.460261 0.188035
225.8759
293.0789
335.8135
386.1872
439.6698
453.6225
0.199299 0.460261 0.250714
227.8558
268.55
352.2583
380.2241
451.208
459.8214
0.199299 0.460261 -0.313392
243.1148
243.6356
368.0422
368.1689
458.6324
458.9622
0.199299 0.575327 0.0
271.3488
301.4015
316.3842
377.8407
397.3233
453.6744
0.199299 0.575327 0.062678
264.8359
308.7985
314.7212
384.4318
403.6347
452.3528
0.199299 0.575327 0.125357
252.1505
306.3329
323.6388
396.4362
419.6704
452.2517
0.199299 0.575327 0.188035
240.1863
289.9588
341.2897
398.2614
438.0959
458.1325
0.199299 0.575327 0.250714
236.3082
267.8488
359.8467
390.0438
452.8929
463.1315
0.199299 0.575327 -0.313392
246.1051
247.1222
376.6085
376.8108
461.2214
461.8727
0.298948 0.517794 0.0
264.7465
299.2212
339.8712
366.3814
388.9364
458.0643
0.298948 0.517794 0.062678
262.9922
296.9079
345.1635
374.2873
395.6383
454.9409
0.298948 0.517794 0.125357
255.8156
287.811
357.8477
392.923
412.7847
447.4915
0.298948 0.517794 0.188035
244.29
271.4467
373.7152
409.2193
430.3835
440.9475
0.298948 0.517794 0.250714
235.1176
251.6811
389.7142
411.5034
440.9714
441.5284
0.298948 0.517794 -0.313392
236.846
237.007
402.918
403.1645
443.8525
443.9714
P	=	1499.91	V	=	104.54878	E	=	-655.32565903
0.0 0.0 0.0
-0.0
-0.0
-0.0
328.7715
328.7715
562.2999
0.0 0.0 0.06264
35.4576
35.4576
97.9241
323.2777
323.2777
551.4735
0.0 0.0 0.125279
79.4135
79.4135
197.4203
308.4499
308.4499
525.1421
0.0 0.0 0.187919
130.7759
130.7759
287.3088
287.3088
292.688
495.3448
0.0 0.0 0.250558
182.0248
182.0248
260.6194
260.6194
372.5819
466.397
0.0 0.0 -0.313198
226.1251
226.1251
226.1327
226.1327
429.4418
429.4836
0.0 0.115118 0.0
32.0803
92.2947
172.1179
340.1121
353.7768
543.9526
0.0 0.115118 0.06264
68.4116
101.0902
190.8032
335.188
348.7271
535.3143
0.0 0.115118 0.125279
119.9127
127.182
242.5124
321.7993
334.2369
514.1736
0.0 0.115118 0.187919
165.9669
167.5684
302.4728
311.2681
312.5708
489.3464
0.0 0.115118 0.250558
208.4805
211.4241
278.0034
284.2803
378.0368
463.104
0.0 0.115118 -0.313198
246.9003
246.9512
250.4958
251.0704
428.4668
428.8385
0.0 0.230236 0.0
103.8592
169.5089
313.3904
364.5812
407.9606
499.6328
0.0 0.230236 0.06264
114.9006
176.3882
324.3576
360.6606
401.0359
498.6744
0.0 0.230236 0.125279
145.8138
196.1674
349.8219
351.8288
381.3909
495.3182
0.0 0.230236 0.187919
187.4129
225.2989
333.8372
351.2772
387.5907
487.6788
0.0 0.230236 0.250558
231.2106
257.8182
313.4528
315.7638
422.7248
473.4465
0.0 0.230236 -0.313198
273.8987
276.1295
288.0858
288.145
451.2528
452.6564
0.0 0.345354 0.0
196.293
220.9161
386.9692
406.3372
452.4143
458.8872
0.0 0.345354 0.06264
198.0786
226.1017
383.4503
412.9359
431.6209
480.1006
0.0 0.345354 0.125279
204.5396
241.6778
373.8791
398.7987
438.8375
499.317
0.0 0.345354 0.187919
219.1113
265.9467
360.075
366.7007
462.2734
508.9765
0.0 0.345354 0.250558
245.8035
294.1108
327.7092
342.6121
483.1698
507.8389
0.0 0.345354 -0.313198
283.951
285.3528
320.6228
320.6719
498.1949
498.9659
0.0 0.460472 0.0
245.392
279.896
400.716
416.5515
453.8885
489.3663
0.0 0.460472 0.06264
248.5797
276.9522
396.9328
410.7281
462.605
498.068
0.0 0.460472 0.125279
260.0749
269.7076
387.0831
396.4627
481.7652
516.9206
0.0 0.460472 0.187919
266.0583
281.5913
373.3039
373.7346
502.8483
532.5431
0.0 0.460472 0.250558
276.7519
309.2214
340.7475
357.2867
520.5752
537.8257
0.0 0.460472 -0.313198
304.1557
305.0585
335.8723
335.9029
532.5861
533.2434
0.0 -0.575589 0.0
251.5269
320.0577
397.5565
405.2457
468.047
498.3594
0.0 -0.575589 0.06264
253.7512
313.3671
398.0011
401.2372
475.6404
505.7901
0.0 -0.575589 0.125279
263.4148
298.616
390.9776
392.9604
493.646
524.3783
0.0 -0.575589 0.187919
284.0296
287.5726
376.4794
377.4798
514.1601
541.7845
0.0 -0.575589 0.250558
292.2872
312.069
348.7662
361.0874
532.1082
548.6491
0.0 -0.575589 -0.313198
315.1506
317.1573
339.4015
339.4862
543.8248
545.1935
0.099695 0.172677 0.0
79.3161
158.2223
273.4908
363.2749
389.6429
512.4822
0.099695 0.172677 0.06264
94.5235
165.6622
285.8107
359.4787
383.7779
508.5954
0.099695 0.172677 0.125279
132.6932
186.5764
316.8508
349.5682
366.4857
498.7195
0.099695 0.172677 0.187919
179.5522
216.6396
329.1114
339.61
362.8794
485.2064
0.099695 0.172677 0.250558
225.123
249.4464
306.6962
309.2208
404.5825
466.9992
0.099695 0.172677 -0.313198
263.4136
264.4928
285.3052
286.2252
440.6412
440.655
0.099695 0.287795 0.0
155.8782
222.3091
352.0082
406.5314
436.1539
466.0167
0.099695 0.287795 0.06264
159.2927
228.9877
358.7532
405.2366
422.2447
477.1344
0.099695 0.287795 0.125279
171.3706
246.9338
366.9284
390.4866
416.2363
490.3126
0.099695 0.287795 0.187919
194.2863
270.9991
353.4063
365.9877
435.1312
495.0558
0.099695 0.287795 0.250558
227.6435
292.3565
321.0189
348.4084
458.0567
489.9251
0.099695 0.287795 -0.313198
267.1552
268.5704
327.332
328.2273
476.6535
477.3445
0.099695 0.402913 0.0
238.5154
260.3705
389.9062
423.2585
443.8187
476.9056
0.099695 0.402913 0.06264
235.9262
266.9296
390.7525
412.5189
452.2303
485.3462
0.099695 0.402913 0.125279
232.145
282.7094
380.0091
402.3047
466.4328
502.9814
0.099695 0.402913 0.187919
233.7867
303.2153
355.1383
391.6886
484.9753
516.1227
0.099695 0.402913 0.250558
248.3857
310.6347
337.0935
375.6565
501.9196
519.3776
0.099695 0.402913 -0.313198
277.6134
278.0214
355.5285
355.9297
513.8676
513.9057
0.099695 0.518031 0.0
274.714
300.8208
391.4083
407.6129
459.7126
497.6992
0.099695 0.518031 0.06264
274.0141
300.6526
385.0378
412.3847
467.3261
502.464
0.099695 0.518031 0.125279
269.6854
305.4424
371.2684
414.2525
485.195
516.534
0.099695 0.518031 0.187919
264.4595
320.5761
351.2776
405.5195
505.3468
531.3753
0.099695 0.518031 0.250558
269.8523
321.2683
345.2853
389.2214
522.3392
537.5688
0.099695 0.518031 -0.313198
290.7368
292.0395
368.1428
368.5018
533.2577
534.3108
0.19939 0.345354 0.0
214.2462
283.8775
371.1838
422.8473
451.9496
463.1927
0.19939 0.345354 0.06264
213.8314
289.749
379.0694
407.5161
462.9444
467.4922
0.19939 0.345354 0.125279
213.5652
304.1554
382.5805
393.4755
464.9666
488.6078
0.19939 0.345354 0.187919
217.5221
316.7471
357.6872
397.5248
474.5219
501.7939
0.19939 0.345354 0.250558
232.7635
298.8708
357.397
388.4488
488.1868
504.6003
0.19939 0.345354 -0.313198
262.1159
263.0097
372.8058
373.4426
499.2003
499.2109
0.19939 0.460472 0.0
267.9617
321.1189
380.4156
396.6382
452.3266
494.8728
0.19939 0.460472 0.06264
264.9723
326.5597
375.2436
405.936
460.8757
494.5871
0.19939 0.460472 0.125279
257.4185
335.1644
366.559
421.8462
477.5069
497.743
0.19939 0.460472 0.187919
249.5469
323.9922
371.8679
426.9049
491.2065
507.5113
0.19939 0.460472 0.250558
249.8085
295.2375
387.6256
418.6197
503.2207
513.2231
0.19939 0.460472 -0.313198
265.8078
266.306
404.074
404.2081
511.0821
511.4466
0.19939 0.575589 0.0
298.5131
330.682
354.338
417.126
442.8794
504.7105
0.19939 0.575589 0.06264
291.5631
340.3456
351.1616
425.87
450.4869
504.2289
0.19939 0.575589 0.125279
278.6239
340.2645
358.4366
440.0352
469.1802
506.069
0.19939 0.575589 0.187919
265.2518
320.4893
377.7781
441.2185
489.6237
513.0015
0.19939 0.575589 0.250558
259.0524
293.8183
396.8105
430.5333
505.322
517.3752
0.19939 0.575589 -0.313198
268.6713
269.7447
414.6193
414.8787
514.3108
515.0898
0.299085 0.518031 0.0
293.4962
334.8792
373.9476
405.7492
431.8837
507.3516
0.299085 0.518031 0.06264
291.647
331.3801
381.2881
416.0268
440.7898
504.7239
0.299085 0.518031 0.125279
284.0518
320.4321
396.875
438.6079
461.855
497.9639
0.299085 0.518031 0.187919
270.422
300.8554
414.0887
455.9756
481.4941
491.5011
0.299085 0.518031 0.250558
257.7243
276.2762
430.2665
455.6154
491.9931
492.1439
0.299085 0.518031 -0.313198
258.1473
258.4657
444.4536
444.5982
494.4111
494.4545
P	=	2000.05	V	=	99.20213	E	=	-655.26239674
0.0 0.0 0.0
-0.0
0.0
0.0
349.6047
349.6047
613.4373
0.0 0.0 0.062613
42.6318
42.6318
106.1529
344.2488
344.2488
601.974
0.0 0.0 0.125225
90.3963
90.3963
213.6183
329.2906
329.2906
573.7536
0.0 0.0 0.187838
142.7654
142.7654
306.7939
306.7939
316.3524
540.8612
0.0 0.0 0.25045
194.5243
194.5243
277.4686
277.4686
402.9839
507.7438
0.0 0.0 -0.313063
240.239
240.239
240.2395
240.2395
465.7025
465.8069
0.0 0.115163 0.0
34.4258
96.0095
184.9669
361.3211
376.625
593.7649
0.0 0.115163 0.062613
75.87
107.7114
206.6188
356.6289
371.9838
584.7722
0.0 0.115163 0.125225
132.5707
138.0981
263.8422
343.2686
357.8627
562.2832
0.0 0.115163 0.187838
178.6564
182.2461
322.6255
334.4265
338.1955
534.6472
0.0 0.115163 0.25045
221.6935
226.2798
295.4387
303.4431
409.3238
504.2269
0.0 0.115163 -0.313063
261.5425
261.6423
266.6078
267.1121
464.7437
465.0229
0.0 0.230325 0.0
111.4358
177.8692
338.0968
387.3129
436.6975
545.9276
0.0 0.230325 0.062613
126.3209
186.7596
351.1866
383.7353
430.5636
545.1581
0.0 0.230325 0.125225
162.5592
209.8968
373.1694
382.4597
411.9914
541.6246
0.0 0.230325 0.187838
205.9314
240.5886
356.0011
379.7746
421.2041
532.2396
0.0 0.230325 0.25045
249.6333
273.3514
332.9176
339.8484
457.6278
514.6158
0.0 0.230325 -0.313063
293.9252
295.8013
304.7417
304.9795
488.8584
489.8153
0.0 0.345488 0.0
210.5507
234.5872
412.6241
440.7303
494.1529
496.1761
0.0 0.345488 0.062613
214.2699
241.1783
409.4213
448.3104
470.0435
522.4511
0.0 0.345488 0.125225
224.0799
259.2746
400.0739
434.2551
478.4741
544.4087
0.0 0.345488 0.187838
239.9083
284.8044
385.1398
399.1398
503.2288
554.558
0.0 0.345488 0.25045
266.3742
313.1981
354.8077
365.1911
524.3069
551.7995
0.0 0.345488 -0.313063
306.3969
307.4486
340.7306
340.8733
540.2871
540.7754
0.0 0.460651 0.0
263.5918
300.1101
429.5858
454.1441
494.9692
534.4133
0.0 0.460651 0.062613
267.7379
297.7871
425.9352
447.6212
504.6314
544.4243
0.0 0.460651 0.125225
281.1339
291.8444
415.9388
431.6245
525.6668
565.2566
0.0 0.460651 0.187838
288.7214
303.7848
401.3711
405.4396
548.1906
581.5164
0.0 0.460651 0.25045
299.4345
331.8264
368.6127
382.7669
566.7572
585.9629
0.0 0.460651 -0.313063
328.2033
329.3309
359.3104
359.5348
579.6951
580.0847
0.0 -0.575814 0.0
271.5693
342.7538
433.4041
435.5446
511.6381
546.5132
0.0 -0.575814 0.062613
274.6697
336.4676
431.5239
433.2164
519.7175
554.7454
0.0 -0.575814 0.125225
286.0374
322.2903
420.887
426.7306
538.9738
574.544
0.0 -0.575814 0.187838
307.7214
311.2846
406.1308
407.8442
560.8643
592.3855
0.0 -0.575814 0.25045
316.0259
336.1996
376.8111
387.7939
579.9989
598.7451
0.0 -0.575814 -0.313063
340.1503
342.34
364.2194
364.6454
593.1506
593.9333
0.099734 0.172744 0.0
85.1485
165.9197
294.003
386.6365
415.9159
559.8548
0.099734 0.172744 0.062613
104.5389
175.5379
308.5322
383.3794
410.7507
556.0405
0.099734 0.172744 0.125225
148.1034
200.0958
342.9495
374.8492
394.2555
545.6719
0.099734 0.172744 0.187838
196.5635
231.7596
351.114
365.9788
394.3685
529.9443
0.099734 0.172744 0.25045
241.8501
264.6611
328.5591
329.315
438.2629
507.8415
0.099734 0.172744 -0.313063
280.5161
281.5877
303.242
303.9006
477.2939
477.4351
0.099734 0.287907 0.0
167.3463
235.2607
376.7439
437.2491
469.0503
509.2313
0.099734 0.287907 0.062613
173.3042
243.7775
384.3393
437.2803
456.5671
520.5085
0.099734 0.287907 0.125225
189.4274
264.8337
392.9873
423.821
453.0282
535.0274
0.099734 0.287907 0.187838
213.2965
290.1117
381.2645
394.4282
473.562
539.4759
0.099734 0.287907 0.25045
245.7961
311.2431
346.3542
371.804
496.6753
532.0631
0.099734 0.287907 -0.313063
286.5006
287.7674
348.5313
349.1916
516.4146
516.8695
0.099734 0.40307 0.0
256.0328
278.1331
417.773
461.8086
481.2376
518.1334
0.099734 0.40307 0.062613
254.2781
286.4163
419.2269
449.4875
491.8817
528.4196
0.099734 0.40307 0.125225
252.3247
304.9385
410.6949
436.1366
508.7108
548.8156
0.099734 0.40307 0.187838
254.3036
326.4361
385.1247
422.4697
528.6164
562.8177
0.099734 0.40307 0.25045
268.0246
333.6962
363.0909
403.1076
545.7857
565.0005
0.099734 0.40307 -0.313063
298.2416
298.6678
380.6333
380.9485
558.1607
558.2108
0.099734 0.518232 0.0
295.5216
322.7097
426.4468
438.0946
501.2987
543.8424
0.099734 0.518232 0.062613
295.3416
323.7683
417.7947
445.2173
509.7693
549.6707
0.099734 0.518232 0.125225
291.8085
330.9806
402.2771
447.9911
529.4817
565.4651
0.099734 0.518232 0.187838
286.4477
347.1552
379.9655
438.1759
551.1626
580.8399
0.099734 0.518232 0.25045
290.9815
345.8712
372.5134
419.3273
569.0837
586.2481
0.099734 0.518232 -0.313063
312.4838
313.8359
396.1301
396.246
581.0444
581.6621
0.199468 0.345488 0.0
230.2678
302.8084
397.603
461.5361
487.9821
501.806
0.199468 0.345488 0.062613
231.3063
310.3579
407.1138
443.7411
502.626
507.5293
0.199468 0.345488 0.125225
233.4052
327.4947
417.201
423.8522
506.8249
532.3249
0.199468 0.345488 0.187838
237.3071
340.6822
389.4872
427.8676
517.4875
546.6363
0.199468 0.345488 0.25045
250.8075
321.5414
384.3787
416.5026
530.8168
548.3899
0.199468 0.345488 -0.313063
281.078
281.8594
398.9519
399.3846
541.8108
541.8199
0.199468 0.460651 0.0
288.3266
344.4746
414.2519
427.0248
490.4611
537.2936
0.199468 0.460651 0.062613
286.0208
351.5884
408.2435
438.7081
500.8586
538.0137
0.199468 0.460651 0.125225
279.716
362.6397
399.1678
457.0547
520.4577
543.3068
0.199468 0.460651 0.187838
271.1291
350.9426
403.3803
461.9506
535.8042
553.9328
0.199468 0.460651 0.25045
268.937
317.9971
417.9807
451.2313
547.9146
558.7914
0.199468 0.460651 -0.313063
284.777
285.3157
434.5412
434.5984
555.8278
556.0631
0.199468 0.575814 0.0
321.23
355.6242
385.5226
449.6658
481.47
548.321
0.199468 0.575814 0.062613
314.5201
367.6669
381.6318
460.632
490.4488
548.8509
0.199468 0.575814 0.125225
302.4341
369.6857
389.1558
477.3156
511.8551
552.7559
0.199468 0.575814 0.187838
288.0586
347.3513
409.8409
478.2588
534.0651
560.5179
0.199468 0.575814 0.25045
279.0069
316.2521
428.5847
465.1304
550.1953
563.9287
0.199468 0.575814 -0.313063
287.8269
288.9152
446.9557
447.0611
559.7847
560.2574
0.299202 0.518232 0.0
316.9875
363.5649
402.7126
438.6039
467.7164
548.9788
0.299202 0.518232 0.062613
315.8162
359.8537
412.2128
451.3537
478.8526
547.1377
0.299202 0.518232 0.125225
309.1851
348.7797
430.813
477.9754
503.8942
541.6335
0.299202 0.518232 0.187838
294.0766
326.9426
449.1079
496.2486
525.455
535.4877
0.299202 0.518232 0.25045
277.4477
297.5651
464.8593
493.2134
535.5215
535.636
0.299202 0.518232 -0.313063
276.116
276.4322
479.5271
479.6657
537.3212
537.4094
P	=	2499.84	V	=	94.89715	E	=	-655.19678542
0.0 0.0 0.0
0.0
0.0
0.0
368.2036
368.2036
658.3172
0.0 0.0 0.062593
49.0449
49.0449
113.6271
363.0631
363.0631
646.3826
0.0 0.0 0.125186
100.5333
100.5333
228.3154
348.1925
348.1925
616.736
0.0 0.0 0.187779
154.0214
154.0214
324.6628
324.6628
337.7943
581.4122
0.0 0.0 0.250372
206.2444
206.2444
293.0543
293.0543
430.4832
544.849
0.0 0.0 -0.312965
253.3786
253.3786
253.3786
253.3786
498.4892
498.4892
0.0 0.115193 0.0
36.8747
98.7202
196.2868
380.0576
396.8771
637.524
0.0 0.115193 0.062593
82.3841
113.3866
220.7391
375.7084
392.6957
628.273
0.0 0.115193 0.125186
143.8111
148.0452
282.9815
362.6186
379.0457
604.7434
0.0 0.115193 0.187779
190.227
195.65
340.8698
354.5486
361.8744
574.8477
0.0 0.115193 0.250372
233.5409
240.0411
311.0827
320.6842
437.3163
540.9577
0.0 0.115193 -0.312965
274.6386
274.6386
281.4702
281.4702
497.3385
497.3385
0.0 0.230386 0.0
118.4228
184.4085
359.7461
407.0816
461.9155
586.6687
0.0 0.230386 0.062593
136.299
195.4485
374.7842
404.0626
456.5675
586.081
0.0 0.230386 0.125186
177.1286
222.1362
394.0793
409.45
439.0121
582.4242
0.0 0.230386 0.187779
222.5813
254.1562
375.7527
404.7916
450.7772
571.5826
0.0 0.230386 0.250372
266.7022
286.6633
349.6884
360.7129
488.1719
551.1036
0.0 0.230386 -0.312965
312.5081
312.5081
318.9194
318.9194
522.289
522.289
0.0 0.34558 0.0
223.247
245.9852
434.8411
470.6542
528.7107
530.8907
0.0 0.34558 0.062593
228.6058
254.2045
432.1704
479.2694
503.5936
559.7405
0.0 0.34558 0.125186
241.4427
275.0397
423.3892
465.3384
513.2582
584.1168
0.0 0.34558 0.187779
258.5247
301.5476
407.363
427.5714
539.0991
594.6763
0.0 0.34558 0.250372
284.8452
329.5635
378.4894
384.6262
560.1667
590.3836
0.0 0.34558 -0.312965
326.5962
326.5962
357.7509
357.7509
577.1462
577.1462
0.0 0.460773 0.0
279.4199
317.8661
454.626
487.1628
530.5969
573.4594
0.0 0.460773 0.062593
284.7501
316.3342
451.2587
479.8979
541.4117
584.7694
0.0 0.460773 0.125186
300.1842
311.8914
441.4607
462.4352
564.3399
607.6951
0.0 0.460773 0.187779
309.1376
323.6775
425.8721
433.846
588.0521
624.5857
0.0 0.460773 0.250372
319.3339
351.5807
393.5094
405.0706
607.1213
628.0933
0.0 0.460773 -0.312965
350.1147
350.1147
379.7608
379.7608
620.8555
620.8555
0.0 -0.575966 0.0
289.2525
362.6402
461.8456
464.8153
549.4417
588.091
0.0 -0.575966 0.062593
293.3082
356.8549
457.9839
464.1984
558.2136
597.2739
0.0 -0.575966 0.125186
306.4291
343.5233
447.3237
456.6825
578.9497
618.5478
0.0 -0.575966 0.187779
328.9688
332.6806
431.5542
435.7788
602.0729
636.8686
0.0 -0.575966 0.250372
337.2191
357.496
401.6865
411.3222
621.9693
642.5921
0.0 -0.575966 -0.312965
363.4305
363.4305
386.3059
386.3059
636.3339
636.3339
0.09976 0.17279 0.0
90.6263
171.9412
311.9204
407.1001
439.0214
601.5235
0.09976 0.17279 0.062593
113.5478
183.9136
328.4599
404.5248
434.5033
597.795
0.09976 0.17279 0.125186
161.7765
212.1972
365.6929
397.7627
418.7606
587.0566
0.09976 0.17279 0.187779
211.8022
245.1669
370.8299
389.2983
422.1794
569.4624
0.09976 0.17279 0.250372
256.8427
277.6851
345.6644
349.2287
468.0588
543.9842
0.09976 0.17279 -0.312965
295.8754
295.8754
319.192
319.192
509.8707
509.8707
0.09976 0.287983 0.0
177.6052
245.8863
397.9521
464.2158
497.816
547.2502
0.09976 0.287983 0.062593
185.6763
256.3247
406.5184
465.4933
486.5635
558.8042
0.09976 0.287983 0.125186
205.3424
280.525
416.0983
453.0609
485.3504
574.4513
0.09976 0.287983 0.187779
230.2266
306.7988
404.9466
420.3823
507.1918
578.5911
0.09976 0.287983 0.250372
262.0134
327.2808
368.5721
392.0513
530.3471
569.0997
0.09976 0.287983 -0.312965
303.8868
303.8868
366.9077
366.9077
551.2929
551.2929
0.09976 0.403176 0.0
271.3788
293.2696
441.7703
495.6213
513.8225
553.9447
0.09976 0.403176 0.062593
270.4877
303.3433
443.9349
481.8106
526.6327
565.9838
0.09976 0.403176 0.125186
270.418
324.5341
437.1681
466.3401
545.7977
589.0442
0.09976 0.403176 0.187779
272.681
346.7789
411.403
449.8435
566.8008
603.8322
0.09976 0.403176 0.250372
285.284
353.6201
386.1777
427.086
584.0147
604.8996
0.09976 0.403176 -0.312965
316.5722
316.5722
402.4736
402.4736
596.7679
596.7679
0.09976 0.518369 0.0
313.665
341.7355
457.0418
464.4332
537.3705
583.716
0.09976 0.518369 0.062593
314.1376
344.1229
446.0283
474.0814
546.8473
590.617
0.09976 0.518369 0.125186
311.6437
353.7166
429.348
477.6954
568.4627
608.2369
0.09976 0.518369 0.187779
306.2361
370.6816
405.3649
467.0216
591.4432
624.1969
0.09976 0.518369 0.250372
309.7012
367.6722
396.6029
445.8328
609.9476
628.7849
0.09976 0.518369 -0.312965
332.4871
332.4871
420.5906
420.5906
622.8205
622.8205
0.19952 0.34558 0.0
244.2126
318.7687
420.3507
495.4095
519.3294
535.377
0.19952 0.34558 0.062593
246.5353
327.9317
431.4804
475.3358
537.2176
542.6706
0.19952 0.34558 0.125186
250.8124
347.6061
447.673
450.5711
543.3873
570.7384
0.19952 0.34558 0.187779
254.8354
361.1643
417.7539
454.6079
554.9353
585.9887
0.19952 0.34558 0.250372
266.8456
341.1081
408.0792
440.9646
567.8779
586.6506
0.19952 0.34558 -0.312965
298.1079
298.1079
421.6767
421.6767
578.8765
578.8765
0.19952 0.460773 0.0
305.7542
364.5153
443.5817
453.139
523.5299
573.9833
0.19952 0.460773 0.062593
304.2303
373.1703
436.7891
467.0761
535.6802
575.663
0.19952 0.460773 0.125186
299.3492
386.3513
427.7626
487.6448
558.0624
582.95
0.19952 0.460773 0.187779
290.3579
374.4528
431.1356
492.5735
574.7193
594.4612
0.19952 0.460773 0.250372
286.026
338.3592
444.5374
479.7452
586.7855
598.5381
0.19952 0.460773 -0.312965
302.1738
302.1738
461.1074
461.1074
594.8173
594.8173
0.19952 0.575966 0.0
340.599
377.1874
412.3596
477.6031
514.8601
585.9711
0.19952 0.575966 0.062593
334.2647
391.3126
407.9736
490.5827
525.152
587.4662
0.19952 0.575966 0.125186
323.234
395.4345
415.8679
509.6317
549.1068
593.2998
0.19952 0.575966 0.187779
308.3506
371.1858
437.8307
510.5521
572.9212
601.8567
0.19952 0.575966 0.250372
297.1138
336.4802
456.3652
495.3716
589.3638
604.4521
0.19952 0.575966 -0.312965
305.8668
305.8668
475.2205
475.2205
599.4951
599.4951
0.299281 0.518369 0.0
336.8093
388.0007
427.5189
466.825
498.6001
584.8509
0.299281 0.518369 0.062593
336.3966
384.2455
438.9705
481.7081
511.6918
583.7348
0.299281 0.518369 0.125186
330.9744
373.4044
460.3152
511.8723
540.271
579.4137
0.299281 0.518369 0.187779
315.0577
350.0401
479.645
531.0772
563.658
573.6432
0.299281 0.518369 0.250372
295.503
316.9571
495.0441
525.9065
573.4288
573.4761
0.299281 0.518369 -0.312965
293.0014
293.0014
510.166
510.166
574.7843
574.7843
P	=	2999.91	V	=	91.29746	E	=	-655.12965819
0.0 0.0 0.0
-0.0
0.0
0.0
384.3003
384.3003
697.7128
0.0 0.0 0.062578
55.1073
55.1073
120.4311
379.4761
379.4761
685.4307
0.0 0.0 0.125156
109.9693
109.9693
241.3122
364.8759
364.8759
654.5769
0.0 0.0 0.187734
164.0163
164.0163
340.3773
340.3773
356.2028
616.8821
0.0 0.0 0.250312
216.0735
216.0735
306.4075
306.4075
453.7238
576.8041
0.0 0.0 -0.31289
264.2866
264.2866
264.2866
264.2866
526.241
526.241
0.0 0.11522 0.0
40.9336
101.3218
206.624
396.4182
414.6079
676.0844
0.0 0.11522 0.062578
88.963
118.7979
233.5623
392.461
410.9162
666.606
0.0 0.11522 0.125156
154.0745
157.2031
300.0612
379.7661
397.8054
642.12
0.0 0.11522 0.187734
200.5518
207.2945
357.0645
372.3017
382.6927
610.0641
0.0 0.11522 0.250312
243.7968
251.5075
324.8234
335.7297
461.6414
572.8371
0.0 0.11522 -0.31289
285.8921
285.8921
293.8314
293.8314
525.3744
525.3744
0.0 0.23044 0.0
125.8645
190.4044
379.2795
424.5851
484.3613
622.8493
0.0 0.23044 0.062578
145.8978
203.3435
396.0085
422.0648
479.6769
622.3098
0.0 0.23044 0.125156
190.0695
233.072
412.6566
433.4879
462.9964
618.3942
0.0 0.23044 0.187734
236.8332
266.2486
393.4299
426.8253
477.3225
606.1998
0.0 0.23044 0.250312
280.8394
298.5985
364.8571
379.3369
515.7914
583.1736
0.0 0.23044 -0.31289
327.7937
327.7937
331.6477
331.6477
551.6646
551.6646
0.0 0.34566 0.0
234.637
256.0645
454.5317
497.25
557.8124
563.567
0.0 0.34566 0.062578
241.2837
265.6915
452.3096
506.6612
533.3729
592.9722
0.0 0.34566 0.125156
256.4789
288.9247
444.0246
492.5228
544.2613
619.2184
0.0 0.34566 0.187734
274.5824
316.407
427.1302
452.3641
571.1552
630.0676
0.0 0.34566 0.250312
300.7907
344.2589
399.324
402.099
592.3726
624.5266
0.0 0.34566 -0.31289
343.848
343.848
373.0787
373.0787
609.8629
609.8629
0.0 0.46088 0.0
293.1363
332.9013
476.6094
516.2044
561.9983
608.1737
0.0 0.46088 0.062578
299.5376
332.0372
473.5087
508.2265
573.809
620.5942
0.0 0.46088 0.125156
316.8832
328.8679
463.8984
489.3486
598.4893
645.1851
0.0 0.46088 0.187734
326.6173
341.2336
447.4201
458.3846
623.3322
662.5827
0.0 0.46088 0.250312
336.6593
369.0516
414.7118
424.7049
642.8334
665.3713
0.0 0.46088 -0.31289
368.4483
368.4483
397.7115
397.7115
657.1203
657.1203
0.0 -0.576099 0.0
304.4775
379.3102
484.8098
492.1563
582.6901
624.9003
0.0 -0.576099 0.062578
309.4835
374.0479
481.1143
491.1091
592.0784
634.8987
0.0 -0.576099 0.125156
324.3383
361.601
470.4686
482.5382
614.1398
657.4372
0.0 -0.576099 0.187734
347.6987
350.9537
453.7899
459.6985
638.3748
676.1353
0.0 -0.576099 0.250312
355.2297
376.1751
422.8308
431.8403
658.9528
681.2545
0.0 -0.576099 -0.31289
382.2139
382.2139
405.3795
405.3795
674.0462
674.0462
0.099783 0.17283 0.0
97.1099
177.6038
328.0001
425.3454
459.4727
638.4686
0.099783 0.17283 0.062578
122.2634
191.6317
346.2971
423.4549
455.56
634.7133
0.099783 0.17283 0.125156
173.7299
223.1104
385.6024
418.702
440.4799
623.4764
0.099783 0.17283 0.187734
224.9159
257.1928
388.4249
409.8283
447.0507
604.2028
0.099783 0.17283 0.250312
269.6687
289.3957
360.9786
366.6029
494.5511
575.8622
0.099783 0.17283 -0.31289
308.6179
308.6179
333.1648
333.1648
538.6699
538.6699
0.099783 0.28805 0.0
187.5247
255.5562
416.556
488.5587
523.5611
581.1916
0.099783 0.28805 0.062578
197.0403
267.6648
425.9725
490.8147
513.3077
592.8942
0.099783 0.28805 0.125156
219.1961
294.5921
436.5167
478.6777
514.3497
609.2623
0.099783 0.28805 0.187734
244.8545
321.7711
425.4824
443.5704
537.3401
613.0766
0.099783 0.28805 0.250312
276.0854
341.6781
387.9413
410.5802
560.6854
601.9045
0.099783 0.28805 -0.31289
318.5427
318.5427
383.3555
383.3555
582.3395
582.3395
0.099783 0.40327 0.0
284.9884
306.6881
462.9126
525.789
542.7812
585.969
0.099783 0.40327 0.062578
284.6384
318.357
465.7324
510.3887
557.4775
599.496
0.099783 0.40327 0.125156
285.9424
341.9073
460.2673
493.0124
578.6745
624.62
0.099783 0.40327 0.187734
288.5493
364.8784
434.0672
474.0819
600.7296
639.9991
0.099783 0.40327 0.250312
300.4775
370.9575
406.3849
448.5318
618.0488
640.241
0.099783 0.40327 -0.31289
332.3157
332.3157
421.8922
421.8922
631.0958
631.0958
0.099783 0.518489 0.0
329.5509
358.178
484.1103
487.6023
569.2277
619.163
0.099783 0.518489 0.062578
330.5318
361.7229
470.6605
499.7337
579.534
626.9724
0.099783 0.518489 0.125156
328.7795
373.4813
452.9766
503.8201
602.7916
646.0549
0.099783 0.518489 0.187734
323.2556
391.3088
427.2743
492.2759
626.9516
662.449
0.099783 0.518489 0.250312
325.8647
386.2684
417.6524
469.0627
645.9838
666.3616
0.099783 0.518489 -0.31289
348.9284
348.9284
442.03
442.03
659.4384
659.4384
0.199567 0.34566 0.0
257.2057
333.2181
440.35
525.9258
547.3265
565.5641
0.199567 0.34566 0.062578
260.3338
343.7615
452.917
503.3388
568.253
574.0605
0.199567 0.34566 0.125156
266.075
365.6327
474.1193
474.1682
576.047
604.6539
0.199567 0.34566 0.187734
270.1845
379.4852
442.093
478.331
588.3302
620.6416
0.199567 0.34566 0.250312
281.0507
358.0723
429.2043
462.893
600.9876
620.5569
0.199567 0.34566 -0.31289
312.6918
312.6918
441.9812
441.9812
611.9487
611.9487
0.199567 0.46088 0.0
321.8177
382.4931
470.2778
476.2432
553.0492
606.8331
0.199567 0.46088 0.062578
320.626
392.4707
462.219
492.3196
566.6398
609.3047
0.199567 0.46088 0.125156
316.4671
407.3969
452.7394
514.679
591.2305
618.1493
0.199567 0.46088 0.187734
306.9977
394.8095
455.4378
519.6175
609.0919
630.2077
0.199567 0.46088 0.250312
300.98
355.6591
468.0158
505.0379
621.203
633.6793
0.199567 0.46088 -0.31289
316.9128
316.9128
484.7069
484.7069
629.2724
629.2724
0.199567 0.576099 0.0
358.4164
396.4501
436.9126
502.4781
544.5566
619.6396
0.199567 0.576099 0.062578
352.063
412.3852
431.6115
517.2438
555.9119
621.9195
0.199567 0.576099 0.125156
341.46
417.9121
439.4432
538.1656
581.9329
629.2752
0.199567 0.576099 0.187734
325.8356
391.5987
462.4443
538.9787
607.094
638.3745
0.199567 0.576099 0.250312
312.6122
353.6569
480.859
522.0507
623.8945
640.2486
0.199567 0.576099 -0.31289
320.754
320.754
500.1516
500.1516
634.3787
634.3787
0.29935 0.518489 0.0
355.6798
410.952
449.8899
491.9951
526.2909
617.0245
0.29935 0.518489 0.062578
355.3993
406.5171
462.9604
508.7305
541.0277
616.463
0.29935 0.518489 0.125156
350.188
395.0046
486.3484
541.8344
572.4362
613.0271
0.29935 0.518489 0.187734
333.1262
369.7993
506.4371
561.7702
597.2417
607.4897
0.29935 0.518489 0.250312
310.9788
333.4293
521.6453
554.8515
606.9002
606.9154
0.29935 0.518489 -0.31289
307.293
307.293
537.255
537.255
607.8881
607.8881
P	=	3200.09	V	=	90.00814	E	=	-655.10249262
0.0 0.0 0.0
-0.0
-0.0
0.0
390.2622
390.2622
712.6354
0.0 0.0 0.062576
57.3357
57.3357
122.9277
385.5548
385.5548
700.2102
0.0 0.0 0.125152
113.4762
113.4762
246.1586
371.0503
371.0503
668.8913
0.0 0.0 0.187729
167.7509
167.7509
346.1843
346.1843
363.1869
630.3385
0.0 0.0 0.250305
219.7261
219.7261
311.3338
311.3338
462.6382
589.0084
0.0 0.0 -0.312881
268.3131
268.3131
268.3131
268.3131
536.9005
536.9005
0.0 0.115228 0.0
43.4553
102.5679
210.7401
402.5232
421.2778
690.7706
0.0 0.115228 0.062576
91.6724
121.0144
238.5479
398.7049
417.745
681.1854
0.0 0.115228 0.125152
157.9075
160.6973
306.5515
386.145
404.7973
656.3118
0.0 0.115228 0.187729
204.442
211.6815
363.0914
378.9269
390.6166
623.4673
0.0 0.115228 0.250305
247.6603
255.9118
329.9575
341.4185
470.9878
585.0533
0.0 0.115228 -0.312881
290.1202
290.1202
298.5833
298.5833
536.1768
536.1768
0.0 0.230455 0.0
129.5438
192.9418
386.8967
431.1858
492.9236
636.7943
0.0 0.230455 0.062576
150.048
206.5149
404.1682
428.8338
488.4309
636.232
0.0 0.230455 0.125152
195.1003
237.2544
419.6126
442.5561
472.0081
632.1426
0.0 0.230455 0.187729
242.3754
270.8242
400.0588
435.1632
487.3214
619.414
0.0 0.230455 0.250305
286.5318
303.1462
370.5962
386.5913
526.3108
595.4636
0.0 0.230455 -0.312881
333.963
333.963
336.5083
336.5083
562.9409
562.9409
0.0 0.345683 0.0
239.3964
259.9497
461.8947
507.3436
568.836
576.2544
0.0 0.345683 0.062576
246.3952
270.0771
459.8321
517.0104
544.7061
605.6906
0.0 0.345683 0.125152
262.284
294.1627
451.7223
502.8252
555.8725
632.5261
0.0 0.345683 0.187729
280.8026
322.0002
434.5163
461.8219
583.1529
643.443
0.0 0.345683 0.250305
307.1683
349.8086
407.4702
408.6629
604.5125
637.4576
0.0 0.345683 -0.312881
350.7888
350.7888
378.8677
378.8677
622.2641
622.2641
0.0 0.460911 0.0
298.2127
338.6923
484.6292
527.431
573.6611
621.1273
0.0 0.460911 0.062576
305.0339
338.0416
481.6561
519.1
585.85
633.9747
0.0 0.460911 0.125152
323.1203
335.2978
472.1734
499.5793
611.1833
659.1921
0.0 0.460911 0.187729
333.2628
347.7855
455.403
467.6899
636.4784
676.7854
0.0 0.460911 0.250305
343.3347
375.5395
422.8177
431.9793
656.1897
679.3268
0.0 0.460911 -0.312881
375.533
375.533
404.3558
404.3558
670.709
670.709
0.0 -0.576138 0.0
310.0591
385.5928
493.0768
502.6652
594.9386
638.5405
0.0 -0.576138 0.062576
315.4557
380.5233
489.4927
501.4009
604.5758
648.861
0.0 -0.576138 0.125152
331.0066
368.4126
478.9518
492.3267
627.1732
671.9042
0.0 -0.576138 0.187729
354.6597
357.8613
461.9939
468.6951
651.8676
690.7657
0.0 -0.576138 0.250305
362.0573
383.0569
430.7872
439.395
672.7341
695.6721
0.0 -0.576138 -0.312881
389.3163
389.3163
412.3761
412.3761
688.1132
688.1132
0.09979 0.172842 0.0
100.5503
180.0633
334.2938
432.2522
467.269
652.665
0.09979 0.172842 0.062576
126.0765
194.7629
353.1677
430.5975
463.5344
648.8644
0.09979 0.172842 0.125152
178.3418
227.2817
393.0715
426.615
448.6325
637.3813
0.09979 0.172842 0.187729
229.9838
261.7343
395.0338
417.5767
456.4374
617.4705
0.09979 0.172842 0.250305
274.7899
293.8563
366.7842
373.3369
504.6736
588.0988
0.09979 0.172842 -0.312881
313.6154
313.6154
338.6365
338.6365
549.754
549.754
0.09979 0.288069 0.0
191.9689
259.4136
423.6662
497.8407
533.3896
594.3741
0.09979 0.288069 0.062576
201.7899
272.0797
433.3514
500.4183
523.4587
606.0631
0.09979 0.288069 0.125152
224.5664
299.9171
444.195
488.3641
525.2153
622.5698
0.09979 0.288069 0.187729
250.5461
327.4199
433.1785
452.4344
548.6369
626.2035
0.09979 0.288069 0.250305
281.797
347.1977
395.4826
417.6812
572.1605
614.4132
0.09979 0.288069 -0.312881
324.4869
324.4869
389.7341
389.7341
594.1755
594.1755
0.09979 0.403297 0.0
290.473
311.7986
470.8389
537.5438
553.6832
598.0127
0.09979 0.403297 0.062576
290.1762
324.0657
473.8881
521.3711
569.0956
612.1273
0.09979 0.403297 0.125152
291.8298
348.4459
468.8931
503.1554
590.9611
638.0077
0.09979 0.403297 0.187729
294.6012
371.6856
442.627
483.2239
613.4075
653.5951
0.09979 0.403297 0.250305
306.4663
377.6112
414.1109
456.6344
630.8287
653.552
0.09979 0.403297 -0.312881
338.5737
338.5737
429.2704
429.2704
644.0347
644.0347
0.09979 0.518525 0.0
335.5158
364.5193
494.6109
496.1194
581.0842
632.3483
0.09979 0.518525 0.062576
336.6823
368.4375
479.8958
509.4595
591.6993
640.5026
0.09979 0.518525 0.125152
335.1896
380.9251
461.8151
513.6252
615.5643
660.1449
0.09979 0.518525 0.187729
329.6622
399.0389
435.4931
501.7117
640.1808
676.721
0.09979 0.518525 0.250305
332.0577
393.3186
425.5416
477.7402
659.4467
680.4089
0.09979 0.518525 -0.312881
355.2585
355.2585
450.0472
450.0472
673.1403
673.1403
0.19958 0.345683 0.0
262.6445
338.7973
448.0279
537.8796
558.0142
576.9167
0.19958 0.345683 0.062576
265.8701
349.7953
461.0866
514.1208
579.8816
586.116
0.19958 0.345683 0.125152
271.8774
372.401
482.9773
484.2576
588.2221
617.5563
0.19958 0.345683 0.187729
276.0558
386.4014
451.3763
487.2173
600.7969
633.7621
0.19958 0.345683 0.250305
286.7736
364.7247
437.3229
471.1891
613.4342
633.3968
0.19958 0.345683 -0.312881
318.6648
318.6648
449.7672
449.7672
624.4584
624.4584
0.19958 0.460911 0.0
328.2901
389.405
480.7975
485.0275
564.2636
619.1222
0.19958 0.460911 0.062576
327.028
399.8298
472.0249
501.9483
578.3818
621.8709
0.19958 0.460911 0.125152
322.8816
415.3185
462.2193
524.829
603.6988
631.2987
0.19958 0.460911 0.187729
313.2624
402.5216
464.6078
529.718
621.9482
643.602
0.19958 0.460911 0.250305
306.8898
362.4382
476.9151
514.5474
634.1148
646.889
0.19958 0.460911 -0.312881
322.8895
322.8895
493.6578
493.6578
642.2391
642.2391
0.19958 0.576138 0.0
365.5047
403.8795
446.6144
511.8657
555.8021
632.225
0.19958 0.576138 0.062576
358.95
420.4727
440.749
527.3337
567.5179
634.7768
0.19958 0.576138 0.125152
348.2836
426.3761
448.3608
548.8779
594.2347
642.6781
0.19958 0.576138 0.187729
332.4116
399.2857
471.7053
549.5956
619.8687
652.0049
0.19958 0.576138 0.250305
318.6989
360.3398
490.0998
532.0578
636.8407
653.6681
0.19958 0.576138 -0.312881
326.745
326.745
509.5603
509.5603
647.4882
647.4882
0.29937 0.518525 0.0
363.3181
420.1432
458.5737
501.6268
536.8921
629.1073
0.29937 0.518525 0.062576
362.8434
415.2015
472.2111
519.0181
552.2107
628.7072
0.29937 0.518525 0.125152
357.3827
403.1518
496.2183
553.1013
584.5735
625.532
0.29937 0.518525 0.187729
339.9125
377.2682
516.5341
573.2336
609.8553
620.1062
0.29937 0.518525 0.250305
317.1358
339.9633
531.7061
565.7155
619.4724
619.5129
0.29937 0.518525 -0.312881
313.2214
313.2214
547.5043
547.5043
620.3839
620.3839
P	=	3399.77	V	=	88.79522	E	=	-655.0752877
0.0 0.0 0.0
-0.0
-0.0
-0.0
395.9944
395.9944
726.9277
0.0 0.0 0.062571
59.3433
59.3433
125.3394
391.3594
391.3594
714.3852
0.0 0.0 0.125143
116.6667
116.6667
250.8048
376.8623
376.8623
682.6547
0.0 0.0 0.187714
171.186
171.186
351.5831
351.5831
369.8348
643.2793
0.0 0.0 0.250285
223.1054
223.1054
315.8865
315.8865
471.1025
600.6996
0.0 0.0 -0.312856
272.0353
272.0353
272.0353
272.0353
547.0536
547.0536
0.0 0.115236 0.0
46.1204
103.7795
214.7521
408.4015
427.6811
704.8692
0.0 0.115236 0.062571
94.387
123.1025
243.3772
404.687
424.2903
695.1831
0.0 0.115236 0.125143
161.6012
163.9384
312.7999
392.1933
411.4621
669.9453
0.0 0.115236 0.187714
208.049
215.8164
368.7539
385.1685
398.2443
636.3611
0.0 0.115236 0.250285
251.2525
259.9719
334.7544
346.6945
479.9932
596.8251
0.0 0.115236 -0.312856
294.0597
294.0597
302.9317
302.9317
546.594
546.594
0.0 0.230472 0.0
133.3786
195.3728
394.2739
437.5314
501.1194
650.2215
0.0 0.230472 0.062571
154.1593
209.5339
412.0999
435.3268
496.8427
649.6002
0.0 0.230472 0.125143
199.8907
241.205
426.2532
451.3457
480.7291
645.3084
0.0 0.230472 0.187714
247.6267
275.1301
406.3559
443.0581
497.1102
632.1194
0.0 0.230472 0.250285
291.8719
307.421
376.0232
393.3653
536.5941
607.3837
0.0 0.230472 -0.312856
339.6834
339.6834
341.0855
341.0855
573.9507
573.9507
0.0 0.345709 0.0
244.1608
263.5947
468.9178
516.9878
579.3953
588.4256
0.0 0.345709 0.062571
251.3919
274.203
467.0045
526.8779
555.6284
617.8628
0.0 0.345709 0.125143
267.8149
299.1051
459.0522
512.57
567.174
645.2453
0.0 0.345709 0.187714
286.7289
327.2809
441.5338
470.736
594.8278
656.2732
0.0 0.345709 0.250285
313.2727
355.0446
414.8795
415.1444
616.3117
649.9385
0.0 0.345709 -0.312856
357.382
357.382
384.3333
384.3333
634.2909
634.2909
0.0 0.460945 0.0
302.8921
344.2898
492.2161
538.087
584.6621
633.5526
0.0 0.460945 0.062571
310.117
343.7968
489.3731
529.3845
597.2433
646.8055
0.0 0.460945 0.125143
328.9179
341.3833
480.0283
509.2154
623.2493
672.6231
0.0 0.460945 0.187714
339.5312
353.8994
462.9857
476.4442
649.0327
690.4342
0.0 0.460945 0.250285
349.6559
381.6183
430.4633
438.8718
669.0116
692.7772
0.0 0.460945 -0.312856
382.2449
382.2449
410.6168
410.6168
683.805
683.805
0.0 -0.576181 0.0
315.1711
391.5863
500.8711
512.574
606.439
651.6257
0.0 -0.576181 0.062571
320.9376
386.6652
497.4085
511.1038
616.3111
662.2517
0.0 -0.576181 0.125143
337.1521
374.8022
486.999
501.5566
639.4365
685.7857
0.0 -0.576181 0.187714
361.1045
364.3022
469.7935
477.1834
664.6406
704.8368
0.0 -0.576181 0.250285
368.4429
389.4724
438.295
446.5598
685.896
709.5677
0.0 -0.576181 -0.312856
396.0005
396.0005
418.9603
418.9603
701.6444
701.6444
0.099797 0.172854 0.0
104.1796
182.4812
340.3539
438.9516
474.7211
666.3291
0.099797 0.172854 0.062571
129.8721
197.8002
359.7856
437.5357
471.1692
662.4568
0.099797 0.172854 0.125143
182.7373
231.2725
400.145
434.4108
456.4253
650.707
0.099797 0.172854 0.187714
234.7537
266.0571
401.3043
424.8928
465.6166
630.227
0.099797 0.172854 0.250285
279.5162
298.0952
372.3097
379.567
514.5581
599.9586
0.099797 0.172854 -0.312856
318.2125
318.2125
343.777
343.777
560.5674
560.5674
0.099797 0.28809 0.0
196.5336
263.1716
430.3957
506.8399
542.7983
607.0554
0.099797 0.28809 0.062571
206.4992
276.3703
440.3379
509.7007
533.2573
618.67
0.099797 0.28809 0.125143
229.6955
305.0756
451.471
497.5379
535.9036
635.2555
0.099797 0.28809 0.187714
255.9582
332.8889
440.4419
460.8274
559.7119
638.7667
0.099797 0.28809 0.250285
287.2126
352.5008
402.5271
424.5292
583.3712
626.4937
0.099797 0.28809 -0.312856
330.0377
330.0377
395.9009
395.9009
605.6946
605.6946
0.099797 0.403327 0.0
295.9091
316.6761
478.3606
548.7667
564.0474
609.6207
0.099797 0.403327 0.062571
295.5757
329.5251
481.629
531.7747
580.2147
624.253
0.099797 0.403327 0.125143
297.4584
354.7037
477.0332
512.7324
602.7804
650.7934
0.099797 0.403327 0.187714
300.3643
378.2388
450.6145
491.9511
625.638
666.6013
0.099797 0.403327 0.250285
312.1856
383.9177
421.473
464.473
643.1885
666.3659
0.099797 0.403327 -0.312856
344.4924
344.4924
436.4469
436.4469
656.5487
656.5487
0.099797 0.518563 0.0
341.1322
370.6466
504.2192
504.55
592.2678
645.0595
0.099797 0.518563 0.062571
342.5057
374.8273
488.6402
518.6657
603.1557
653.5251
0.099797 0.518563 0.125143
341.244
387.9247
470.1749
522.884
627.5922
673.6699
0.099797 0.518563 0.187714
335.6698
406.3726
443.2162
510.7118
652.7159
690.4426
0.099797 0.518563 0.250285
337.8836
399.9631
433.1069
486.126
672.3392
693.9718
0.099797 0.518563 -0.312856
361.228
361.228
457.8289
457.8289
686.3662
686.3662
0.199595 0.345709 0.0
268.1449
344.2955
455.2697
549.3244
568.1652
587.9874
0.199595 0.345709 0.062571
271.3639
355.722
468.7795
524.3596
591.2424
597.5446
0.199595 0.345709 0.125143
277.4937
379.0288
491.3269
493.7193
600.1429
629.7139
0.199595 0.345709 0.187714
281.7364
393.1362
460.0653
495.7091
612.9849
646.1747
0.199595 0.345709 0.250285
292.3493
371.0082
445.2262
479.2746
625.5695
645.6914
0.199595 0.345709 -0.312856
324.3879
324.3879
457.4484
457.4484
636.5801
636.5801
0.199595 0.460945 0.0
334.6916
396.1438
490.8161
493.4306
574.9489
631.0883
0.199595 0.460945 0.062571
333.3079
406.9643
481.3155
511.0775
589.4849
634.0749
0.199595 0.460945 0.125143
329.0799
422.9637
471.0758
534.4049
615.4675
643.9448
0.199595 0.460945 0.187714
319.3325
409.8535
473.3086
539.3887
634.2276
656.4086
0.199595 0.460945 0.250285
312.7327
368.9293
485.5987
523.8507
646.5936
659.6303
0.199595 0.460945 -0.312856
328.7807
328.7807
502.5081
502.5081
654.8324
654.8324
0.199595 0.576181 0.0
372.4208
411.0708
455.8488
520.9409
566.5106
644.4753
0.199595 0.576181 0.062571
365.6524
428.1777
449.4732
536.9353
578.4846
647.2435
0.199595 0.576181 0.125143
354.8304
434.4229
456.7497
558.9904
605.767
655.5754
0.199595 0.576181 0.187714
338.7259
406.5906
480.495
559.76
631.9411
665.1201
0.199595 0.576181 0.250285
324.7003
366.828
499.0766
541.8342
649.304
666.703
0.199595 0.576181 -0.312856
332.7195
332.7195
518.833
518.833
660.2641
660.2641
0.299392 0.518563 0.0
370.7835
428.9546
467.0189
510.9641
547.1322
640.9257
0.299392 0.518563 0.062571
370.085
423.5438
481.0392
528.8499
562.8592
640.6261
0.299392 0.518563 0.125143
364.3082
410.9163
505.4573
563.7461
595.9723
637.6147
0.299392 0.518563 0.187714
346.5159
384.4169
526.0234
584.218
621.8253
632.2912
0.299392 0.518563 0.250285
323.3954
346.4722
541.3924
576.3451
631.7573
631.7626
0.299392 0.518563 -0.312856
319.3815
319.3815
557.5679
557.5679
632.6988
632.6988
P	=	3599.98	V	=	87.64534	E	=	-655.04793323
0.0 0.0 0.0
-0.0
-0.0
0.0
401.8023
401.8023
740.7798
0.0 0.0 0.062565
61.0615
61.0615
127.4681
397.191
397.191
728.0887
0.0 0.0 0.12513
119.5174
119.5174
255.0767
382.6231
382.6231
695.9145
0.0 0.0 0.187695
174.4789
174.4789
356.943
356.943
376.2141
655.7927
0.0 0.0 0.250261
226.58
226.58
320.5183
320.5183
479.4428
612.1446
0.0 0.0 -0.312826
275.9303
275.9303
275.9303
275.9303
557.1019
557.1019
0.0 0.115248 0.0
49.0764
105.1257
218.8997
414.329
434.1871
718.5777
0.0 0.115248 0.062565
96.9917
125.1582
248.1367
410.673
430.8578
708.758
0.0 0.115248 0.12513
165.0142
166.9953
318.7361
398.1764
418.0272
683.1183
0.0 0.115248 0.187695
211.5641
219.8678
374.372
391.3516
405.5694
648.8542
0.0 0.115248 0.250261
254.942
264.2728
339.6281
352.1385
488.8232
608.3482
0.0 0.115248 -0.312826
298.1673
298.1673
307.63
307.63
556.8733
556.8733
0.0 0.230495 0.0
137.4968
197.9621
401.8052
443.8962
509.462
663.3655
0.0 0.230495 0.062565
158.3365
212.6086
419.9979
441.8033
505.2791
662.654
0.0 0.230495 0.12513
204.4931
245.081
432.8279
459.8554
489.2853
658.1115
0.0 0.230495 0.187695
252.7969
279.3933
412.6195
450.8853
506.5675
644.4922
0.0 0.230495 0.250261
297.4796
311.7883
381.53
400.3584
546.6973
619.0969
0.0 0.230495 -0.312826
345.818
345.818
345.8308
345.8308
584.8458
584.8458
0.0 0.345743 0.0
249.0144
267.3939
475.929
526.7343
590.0466
600.387
0.0 0.345743 0.062565
256.3883
278.4178
474.1448
536.7529
566.4153
629.8785
0.0 0.345743 0.12513
273.1976
304.0422
466.3286
522.2069
578.1631
657.6966
0.0 0.345743 0.187695
292.5404
332.5653
448.5378
479.5683
606.1907
668.8342
0.0 0.345743 0.250261
319.4816
360.3719
421.175
422.9165
627.9383
662.2573
0.0 0.345743 -0.312826
364.1965
364.1965
389.9343
389.9343
646.2258
646.2258
0.0 0.46099 0.0
307.7907
349.784
499.7141
548.5352
595.7522
645.893
0.0 0.46099 0.062565
315.3765
349.4266
496.9992
539.4962
608.6204
659.4805
0.0 0.46099 0.12513
334.8192
347.3125
487.8047
518.6849
635.1603
685.7945
0.0 0.46099 0.187695
345.684
360.0973
470.5438
485.063
661.3772
703.7955
0.0 0.46099 0.250261
355.9661
387.8075
438.0658
445.8216
681.638
705.985
0.0 0.46099 -0.312826
388.9862
388.9862
416.9912
416.9912
696.7067
696.7067
0.0 -0.576238 0.0
320.5518
397.3972
508.5274
522.262
618.0266
664.5329
0.0 -0.576238 0.062565
326.6533
392.6319
505.1926
520.5834
628.0866
675.4292
0.0 -0.576238 0.12513
343.4651
381.0427
494.9433
510.5664
651.6412
699.3894
0.0 -0.576238 0.187695
367.6805
370.6483
477.5529
485.4869
677.2654
718.597
0.0 -0.576238 0.250261
374.7915
396.013
445.693
453.7659
698.8463
723.1641
0.0 -0.576238 -0.312826
402.6449
402.6449
425.6478
425.6478
714.9149
714.9149
0.099807 0.172871 0.0
108.1359
185.0222
346.5844
445.6745
482.328
679.6822
0.099807 0.172871 0.062565
133.7253
200.8463
366.3906
444.4407
478.849
675.7049
0.099807 0.172871 0.12513
186.9328
235.1334
407.0144
442.0302
464.104
663.6427
0.099807 0.172871 0.187695
239.4702
270.2917
407.5243
432.1603
474.4662
642.6313
0.099807 0.172871 0.250261
284.5518
302.3979
377.8961
386.0475
524.2541
611.5931
0.099807 0.172871 -0.312826
323.1253
323.1253
349.2054
349.2054
571.2479
571.2479
0.099807 0.288119 0.0
201.3027
266.9908
437.2422
515.8904
552.3641
619.5183
0.099807 0.288119 0.062565
211.2814
280.645
447.3572
518.9583
543.033
631.056
0.099807 0.288119 0.12513
234.6972
310.1112
458.7059
506.6339
546.2525
647.6567
0.099807 0.288119 0.187695
261.2984
338.2551
447.6686
469.1756
570.4512
651.0593
0.099807 0.288119 0.250261
292.8406
357.8569
409.7077
431.4091
594.4184
638.4234
0.099807 0.288119 -0.312826
335.9249
335.9249
402.1534
402.1534
617.1425
617.1425
0.099807 0.403366 0.0
301.3651
321.6427
485.9116
559.812
574.5356
621.1958
0.099807 0.403366 0.062565
300.9511
335.0079
489.3655
542.1154
591.2469
636.265
0.099807 0.403366 0.12513
302.9798
360.8902
485.1287
522.2256
614.3537
663.3504
0.099807 0.403366 0.187695
306.0517
384.7103
458.5947
500.5673
637.601
679.3597
0.099807 0.403366 0.250261
317.9945
390.3069
428.8194
472.2325
655.3646
678.9992
0.099807 0.403366 -0.312826
350.6032
350.6032
443.5797
443.5797
668.9298
668.9298
0.099807 0.518614 0.0
346.9255
376.6623
512.2562
514.3092
603.5698
657.6024
0.099807 0.518614 0.062565
348.4037
381.1597
497.2289
527.7828
614.6657
666.345
0.099807 0.518614 0.12513
347.2515
394.9067
478.426
532.0028
639.5553
686.9285
0.099807 0.518614 0.187695
341.6496
413.6581
450.8977
519.5465
665.0965
703.8645
0.099807 0.518614 0.250261
343.7647
406.6473
440.6014
494.3622
685.0239
707.2473
0.099807 0.518614 -0.312826
367.2907
367.2907
465.5014
465.5014
699.3426
699.3426
0.199615 0.345743 0.0
273.7561
349.7212
462.6971
560.6147
578.5603
598.9423
0.199615 0.345743 0.062565
276.8919
361.5261
476.5855
534.5968
602.4041
608.9639
0.199615 0.345743 0.12513
283.0102
385.4636
499.6745
503.1638
611.7237
641.7127
0.199615 0.345743 0.187695
287.3285
399.7378
468.7112
504.1154
624.8404
658.4014
0.199615 0.345743 0.250261
298.0251
377.4203
453.0028
487.2412
637.5161
657.8651
0.199615 0.345743 -0.312826
330.3416
330.3416
465.004
465.004
648.611
648.611
0.199615 0.46099 0.0
341.1117
402.8793
500.7228
501.9365
585.8242
642.8844
0.199615 0.46099 0.062565
339.5684
414.041
490.5593
520.2616
600.6637
646.0765
0.199615 0.46099 0.12513
335.1882
430.4621
479.9397
543.9335
627.1303
656.3479
0.199615 0.46099 0.187695
325.3035
417.1211
481.9082
548.9019
646.2962
668.9717
0.199615 0.46099 0.250261
318.5536
375.4574
494.088
532.932
658.8524
672.1399
0.199615 0.46099 -0.312826
334.7254
334.7254
511.1284
511.1284
667.2092
667.2092
0.199615 0.576238 0.0
379.3081
418.3495
464.993
530.0332
577.3685
656.5424
0.199615 0.576238 0.062565
372.3051
435.949
458.1058
546.5115
589.5519
659.5097
0.199615 0.576238 0.12513
361.2931
442.3768
465.1443
568.9874
617.2854
668.2293
0.199615 0.576238 0.187695
344.9536
413.8234
489.1989
569.7213
643.8745
677.9436
0.199615 0.576238 0.250261
330.6432
373.2773
507.876
551.3614
661.5262
679.4171
0.199615 0.576238 -0.312826
338.6618
338.6618
527.8671
527.8671
672.7353
672.7353
0.299422 0.518614 0.0
378.2706
437.7335
475.5044
520.4009
557.4919
652.5798
0.299422 0.518614 0.062565
377.3231
431.8361
489.9188
538.7262
573.5626
652.3685
0.299422 0.518614 0.12513
371.1687
418.6085
514.7228
574.3085
607.2904
649.4891
0.299422 0.518614 0.187695
352.9976
391.4753
535.4605
594.9863
633.5761
644.2245
0.299422 0.518614 0.250261
329.5045
352.8684
550.9208
586.7033
643.6816
643.7337
0.299422 0.518614 -0.312826
325.3982
325.3982
567.3874
567.3874
644.6592
644.6592
P	=	3799.93	V	=	86.55575	E	=	-655.02053053
0.0 0.0 0.0
0.0
0.0
0.0
407.5396
407.5396
754.2428
0.0 0.0 0.062561
62.6036
62.6036
129.5947
402.906
402.906
741.4153
0.0 0.0 0.125121
122.131
122.131
259.2566
388.1792
388.1792
708.8056
0.0 0.0 0.187682
177.5907
177.5907
362.0607
362.0607
382.3282
667.8962
0.0 0.0 0.250242
229.9425
229.9425
324.956
324.956
487.3476
623.1035
0.0 0.0 -0.312803
279.7042
279.7042
279.7042
279.7042
566.6344
566.6344
0.0 0.115256 0.0
52.2885
106.5477
222.847
420.1851
440.5248
731.9439
0.0 0.115256 0.062561
99.6882
127.1889
252.7548
416.5481
437.2624
721.9912
0.0 0.115256 0.125121
168.3595
169.9163
324.5816
403.9744
424.4426
695.9389
0.0 0.115256 0.187682
214.9449
223.7916
379.7788
397.3965
412.7263
660.9589
0.0 0.115256 0.250242
258.5415
268.4367
344.3383
357.4487
497.3434
619.4469
0.0 0.115256 -0.312803
302.1767
302.1767
312.1925
312.1925
566.7448
566.7448
0.0 0.230513 0.0
141.8947
200.6225
409.0105
450.168
517.4631
676.2615
0.0 0.230513 0.062561
162.6977
215.6955
427.6535
448.1597
513.4503
675.4352
0.0 0.230513 0.125121
209.1535
248.8816
439.2353
468.2435
497.7078
670.6048
0.0 0.230513 0.187682
257.9296
283.5607
418.7088
458.6418
515.9117
656.553
0.0 0.230513 0.250242
302.9573
316.0836
386.9091
407.2303
556.6379
630.5285
0.0 0.230513 -0.312803
350.4742
350.4742
351.8105
351.8105
595.5115
595.5115
0.0 0.345769 0.0
253.9728
271.1828
482.776
536.0979
600.2752
612.1528
0.0 0.345769 0.062561
261.436
282.5856
481.1066
546.3296
576.8876
641.6058
0.0 0.345769 0.125121
278.5542
308.8735
473.4066
531.6469
588.9012
669.867
0.0 0.345769 0.187682
298.2777
337.7291
455.3553
488.2238
617.3435
681.1386
0.0 0.345769 0.250242
325.5648
365.5984
427.3303
430.5044
639.3439
674.3344
0.0 0.345769 -0.312803
370.8375
370.8375
395.435
395.435
657.9255
657.9255
0.0 0.461025 0.0
312.5848
355.1968
506.9508
558.7686
606.4248
657.8439
0.0 0.461025 0.062561
320.5039
354.9446
504.3619
549.3608
619.5977
671.7888
0.0 0.461025 0.125121
340.5431
353.0731
495.3234
527.8797
646.6932
698.623
0.0 0.461025 0.187682
351.6277
366.1095
477.8749
493.4029
673.3617
716.8245
0.0 0.461025 0.250242
362.0454
393.8359
445.4004
452.592
693.9197
718.8647
0.0 0.461025 -0.312803
395.4782
395.4782
423.215
423.215
709.2759
709.2759
0.0 -0.576282 0.0
325.7879
403.0504
515.8754
531.7105
629.1841
677.0835
0.0 -0.576282 0.062561
332.1979
398.4183
512.6719
529.8043
639.4247
688.2397
0.0 -0.576282 0.125121
349.563
387.053
502.6
519.2799
663.4004
712.6083
0.0 -0.576282 0.187682
374.0347
376.7226
485.0647
493.472
689.4564
731.9673
0.0 -0.576282 0.250242
380.8496
402.3604
452.7759
460.7728
711.392
736.3784
0.0 -0.576282 -0.312803
408.9875
408.9875
432.159
432.159
727.8032
727.8032
0.099815 0.172884 0.0
112.4053
187.6367
352.5529
452.2708
489.6499
692.7638
0.099815 0.172884 0.062561
137.7743
203.9061
372.8001
451.2029
486.3039
688.6647
0.099815 0.172884 0.125121
191.1748
238.9205
413.7282
449.5218
471.6696
676.2573
0.099815 0.172884 0.187682
244.1305
274.4317
413.5616
439.3624
483.2084
654.699
0.099815 0.172884 0.250242
289.4581
306.63
383.3361
392.4187
533.7709
622.909
0.099815 0.172884 -0.312803
327.927
327.927
354.5047
354.5047
581.6647
581.6647
0.099815 0.288141 0.0
206.2855
270.8393
443.9184
524.624
561.5447
631.785
0.099815 0.288141 0.062561
216.2025
284.9121
454.2274
527.9392
552.5086
643.2009
0.099815 0.288141 0.125121
239.7364
315.0765
465.7738
515.576
556.3945
659.7896
0.099815 0.288141 0.187682
266.618
343.5288
454.7066
477.3995
581.038
663.1001
0.099815 0.288141 0.250242
298.3972
363.1505
416.6999
438.1353
605.2921
650.1261
0.099815 0.288141 -0.312803
341.7194
341.7194
408.2478
408.2478
628.3859
628.3859
0.099815 0.403397 0.0
306.8601
326.5684
493.2756
570.6802
584.6408
632.3863
0.099815 0.403397 0.062561
306.3169
340.424
496.8998
552.2232
601.9464
647.9425
0.099815 0.403397 0.125121
308.4266
366.9494
492.9781
531.5039
625.6253
675.6181
0.099815 0.403397 0.187682
311.6287
391.0365
466.3332
508.953
649.2844
691.8443
0.099815 0.403397 0.250242
323.6812
396.594
435.9094
479.7616
667.2606
691.358
0.099815 0.403397 -0.312803
356.5904
356.5904
450.4902
450.4902
681.0306
681.0306
0.099815 0.518653 0.0
352.6277
382.5879
520.0421
523.8727
614.4944
669.8066
0.099815 0.518653 0.062561
354.1982
387.3573
505.537
536.7034
625.7927
678.8188
0.099815 0.518653 0.125121
353.125
401.6687
486.4013
540.8674
651.1241
699.8295
0.099815 0.518653 0.187682
347.4595
420.6879
458.3117
528.096
677.0832
716.9232
0.099815 0.518653 0.250242
349.4575
413.128
447.806
502.311
697.3301
720.1604
0.099815 0.518653 -0.312803
373.1594
373.1594
472.8946
472.8946
711.9545
711.9545
0.19963 0.345769 0.0
279.4946
355.1368
469.99
571.754
588.5825
609.5468
0.19963 0.345769 0.062561
282.4887
367.29
484.2458
544.5957
613.2395
620.1193
0.19963 0.345769 0.125121
288.5029
391.807
507.8264
512.3872
623.0332
653.4699
0.19963 0.345769 0.187682
292.847
406.2455
477.1259
512.2756
636.4602
670.3934
0.19963 0.345769 0.250242
303.6146
383.7602
460.5239
494.9523
649.2224
669.7986
0.19963 0.345769 -0.312803
336.213
336.213
472.3088
472.3088
660.3953
660.3953
0.19963 0.461025 0.0
347.5656
409.5788
510.3062
510.5056
596.4027
654.3685
0.19963 0.461025 0.062561
345.8267
421.0458
499.6178
529.2993
611.5605
657.7613
0.19963 0.461025 0.125121
341.2131
437.8307
488.5673
553.2298
638.5016
668.4386
0.19963 0.461025 0.187682
331.1187
424.231
490.2319
558.1174
658.0463
681.2287
0.19963 0.461025 0.250242
324.188
381.8213
502.2841
541.697
670.7827
684.3309
0.19963 0.461025 -0.312803
340.492
340.492
519.4423
519.4423
679.2584
679.2584
0.19963 0.576282 0.0
386.1795
425.5861
474.0284
538.9687
587.9844
668.3249
0.19963 0.576282 0.062561
378.9294
443.6194
466.5968
555.9148
600.3482
671.469
0.19963 0.576282 0.125121
367.6623
450.1348
473.3396
578.7493
628.4796
680.5412
0.19963 0.576282 0.187682
351.009
420.8285
497.6332
579.3781
655.4458
690.4087
0.19963 0.576282 0.250242
336.3608
379.4921
516.3743
560.5598
673.3743
691.7629
0.19963 0.576282 -0.312803
344.3645
344.3645
536.5826
536.5826
684.834
684.834
0.299445 0.518653 0.0
385.7812
446.4658
483.9259
529.7674
567.7067
663.9632
0.299445 0.518653 0.062561
384.5574
440.0606
498.6841
548.4783
584.0949
663.8121
0.299445 0.518653 0.125121
377.9364
426.1681
523.7841
584.6406
618.3774
661.0168
0.299445 0.518653 0.187682
359.2818
398.3334
544.6386
605.4225
645.022
655.8012
0.299445 0.518653 0.250242
335.342
359.0121
560.1681
596.7112
655.2441
655.338
0.299445 0.518653 -0.312803
331.1262
331.1262
576.8969
576.8969
656.24
656.24
P	=	3999.92	V	=	85.51929	E	=	-654.99305389
0.0 0.0 0.0
-0.0
-0.0
0.0
413.2759
413.2759
767.3598
0.0 0.0 0.062556
63.7571
63.7571
131.3936
408.5396
408.5396
754.3794
0.0 0.0 0.125112
124.2038
124.2038
262.9697
393.4991
393.4991
721.3235
0.0 0.0 0.187668
180.2772
180.2772
366.8717
366.8717
388.0459
679.6826
0.0 0.0 0.250224
233.0718
233.0718
329.1488
329.1488
495.0062
633.8495
0.0 0.0 -0.31278
283.3086
283.3086
283.3086
283.3086
576.0006
576.0006
0.0 0.115266 0.0
55.4674
108.0012
226.8959
426.0359
446.8676
744.9869
0.0 0.115266 0.062556
102.2048
129.0662
257.2528
422.3493
443.5804
734.8899
0.0 0.115266 0.125112
171.3688
172.4896
330.0433
409.57
430.5959
708.4255
0.0 0.115266 0.187668
218.0088
227.4041
384.9311
403.0982
419.5026
672.7929
0.0 0.115266 0.250224
261.9611
272.4091
348.8549
362.4924
505.6258
630.3721
0.0 0.115266 -0.31278
306.0592
306.0592
316.591
316.591
576.4734
576.4734
0.0 0.230531 0.0
146.3317
203.295
416.3206
456.3512
525.3876
688.8795
0.0 0.230531 0.062556
166.9596
218.7054
435.2677
454.3813
521.4404
687.9368
0.0 0.230531 0.125112
213.5367
252.4829
445.4271
476.3371
505.7883
682.8259
0.0 0.230531 0.187668
262.8044
287.5253
424.5655
465.9684
524.9326
668.3822
0.0 0.230531 0.250224
308.2989
320.2508
392.1215
413.8098
566.3345
641.7908
0.0 0.230531 -0.31278
355.0274
355.0274
357.656
357.656
606.0169
606.0169
0.0 0.345797 0.0
258.949
274.8717
489.3272
545.3581
610.2631
623.6694
0.0 0.345797 0.062556
266.4018
286.6042
487.7443
555.639
587.1348
653.041
0.0 0.345797 0.125112
283.6698
313.4829
480.1176
540.6263
599.3748
681.6646
0.0 0.345797 0.187668
303.7652
342.6672
461.8205
496.4565
628.1572
693.062
0.0 0.345797 0.250224
331.5135
370.6392
433.2153
437.8279
650.4442
686.0906
0.0 0.345797 -0.31278
377.362
377.362
400.7439
400.7439
669.3479
669.3479
0.0 0.461063 0.0
317.1099
360.5584
513.6714
568.7614
616.6661
669.4202
0.0 0.461063 0.062556
325.3243
360.3296
511.1908
558.9177
630.1333
683.67
0.0 0.461063 0.125112
345.9036
358.5595
502.2892
536.6847
657.7334
710.9541
0.0 0.461063 0.187668
357.2699
371.7596
484.6907
501.3595
684.8532
729.3608
0.0 0.461063 0.250224
367.9136
399.5381
452.4595
458.9419
705.7696
731.3157
0.0 0.461063 -0.31278
401.7918
401.7918
429.1018
429.1018
721.4527
721.4527
0.0 -0.576328 0.0
330.6692
408.6142
522.6154
540.9204
639.7594
689.201
0.0 -0.576328 0.062556
337.3498
404.0343
519.5289
538.7424
650.1589
700.5826
0.0 -0.576328 0.125112
355.2117
392.7513
509.6241
527.6358
674.5303
725.3099
0.0 -0.576328 0.187668
379.9431
382.4486
491.9899
501.0908
701.0553
744.8306
0.0 -0.576328 0.250224
386.6407
408.3039
459.5683
467.2913
723.4369
749.1399
0.0 -0.576328 -0.31278
415.1062
415.1062
438.2622
438.2622
740.2547
740.2547
0.099823 0.172899 0.0
116.7044
190.3374
358.6088
458.8532
496.9109
705.5558
0.099823 0.172899 0.062556
141.7054
206.935
379.1418
457.8952
493.5955
701.3297
0.099823 0.172899 0.125112
195.1259
242.5198
420.1559
456.8274
478.8827
688.5865
0.099823 0.172899 0.187668
248.5257
278.3783
419.3871
446.1445
491.6099
666.5363
0.099823 0.172899 0.250224
294.2083
310.759
388.6455
398.4862
543.0452
634.0689
0.099823 0.172899 -0.31278
332.5874
332.5874
359.7233
359.7233
591.935
591.935
0.099823 0.288164 0.0
211.3172
274.758
450.5161
533.2586
570.5236
643.7966
0.099823 0.288164 0.062556
221.0522
289.1733
460.9319
536.7009
561.747
655.0763
0.099823 0.288164 0.125112
244.5294
319.9238
472.573
524.0461
566.2904
671.6013
0.099823 0.288164 0.187668
271.6961
348.6755
461.4417
485.235
591.3025
674.8174
0.099823 0.288164 0.250224
303.825
368.3365
423.4529
444.7684
615.8834
661.5603
0.099823 0.288164 -0.31278
347.3606
347.3606
414.3566
414.3566
639.3909
639.3909
0.099823 0.40343 0.0
312.3578
331.4194
500.3165
581.3101
594.3721
643.2939
0.099823 0.40343 0.062556
311.5703
345.7222
504.0608
561.9653
612.3366
659.2486
0.099823 0.40343 0.125112
313.6024
372.8111
500.3754
540.3634
636.5247
687.408
0.099823 0.40343 0.187668
316.9283
397.1723
473.6388
517.0124
660.5663
703.8503
0.099823 0.40343 0.250224
329.2107
402.6362
442.8658
487.138
678.798
703.3206
0.099823 0.40343 -0.31278
362.4242
362.4242
457.3676
457.3676
692.7952
692.7952
0.099823 0.518696 0.0
358.1018
388.4538
527.3092
533.2092
624.8706
681.6445
0.099823 0.518696 0.062556
359.7416
393.3657
513.4123
545.2179
636.3515
690.8807
0.099823 0.518696 0.125112
358.6491
408.1115
493.9204
549.2417
662.0972
712.2428
0.099823 0.518696 0.187668
352.9048
427.4361
465.297
536.236
688.5145
729.4991
0.099823 0.518696 0.250224
354.9155
419.3074
454.8485
510.0241
709.1868
732.6654
0.099823 0.518696 -0.31278
378.8424
378.8424
480.1682
480.1682
724.1886
724.1886
0.199646 0.345797 0.0
285.2729
360.6491
477.0943
582.6575
598.1124
620.0131
0.199646 0.345797 0.062556
288.0015
373.0777
491.6469
554.1922
623.8931
630.8269
0.199646 0.345797 0.125112
293.7368
398.0676
515.6402
521.1185
634.0721
664.6937
0.199646 0.345797 0.187668
298.1429
412.6166
485.1721
520.1906
647.7531
681.8659
0.199646 0.345797 0.250224
309.1621
389.9029
468.0824
502.6389
660.6123
681.3197
0.199646 0.345797 -0.31278
342.0517
342.0517
479.7469
479.7469
671.8563
671.8563
0.199646 0.461063 0.0
354.012
416.2239
518.3534
520.0783
606.4067
665.6217
0.199646 0.461063 0.062556
351.9394
427.9409
508.3322
537.9646
621.8678
669.1665
0.199646 0.461063 0.125112
346.9148
444.9984
496.7418
562.0826
649.3026
680.1119
0.199646 0.461063 0.187668
336.6972
431.0646
498.3032
567.0332
669.3303
693.0096
0.199646 0.461063 0.250224
329.8826
388.1099
510.4881
550.4201
682.3672
696.1549
0.199646 0.461063 -0.31278
346.4183
346.4183
527.8633
527.8633
691.0187
691.0187
0.199646 0.576328 0.0
393.002
432.6621
482.8782
547.458
598.0806
679.8456
0.199646 0.576328 0.062556
385.3731
451.0424
474.8118
564.8152
610.5871
683.1219
0.199646 0.576328 0.125112
373.6768
457.5137
481.1859
587.9785
639.073
692.4534
0.199646 0.576328 0.187668
356.8054
427.5383
505.8042
588.6767
666.496
702.467
0.199646 0.576328 0.250224
342.168
385.7159
524.816
569.66
684.8834
703.8217
0.199646 0.576328 -0.31278
350.3194
350.3194
545.3389
545.3389
696.7059
696.7059
0.299469 0.518696 0.0
393.2361
455.0484
492.1431
538.783
577.4348
675.1576
0.299469 0.518696 0.062556
391.5812
448.0369
507.1343
557.8201
594.0824
675.0248
0.299469 0.518696 0.125112
384.3284
433.3585
532.4103
594.4997
628.8484
672.2524
0.299469 0.518696 0.187668
365.3775
404.9703
553.4594
615.5492
655.9746
667.0877
0.299469 0.518696 0.250224
341.4821
365.3845
569.286
606.6676
666.5816
666.7769
0.299469 0.518696 -0.31278
337.4102
337.4102
586.4315
586.4315
667.7462
667.7462
P	=	4999.99	V	=	81.00546	E	=	-654.85552548
0.0 0.0 0.0
-0.0
-0.0
0.0
440.4836
440.4836
827.9565
0.0 0.0 0.062531
66.4995
66.4995
139.1954
434.7802
434.7802
814.1621
0.0 0.0 0.125063
130.4005
130.4005
279.3193
417.4053
417.4053
778.7963
0.0 0.0 0.187594
190.5559
190.5559
388.2072
388.2072
413.605
733.5517
0.0 0.0 0.250125
247.1951
247.1951
348.3036
348.3036
529.6008
682.807
0.0 0.0 -0.312656
300.3211
300.3211
300.3211
300.3211
618.5457
618.5457
0.0 0.115306 0.0
72.793
115.8701
247.0965
454.0215
477.8923
805.6201
0.0 0.115306 0.062531
114.6029
137.5532
278.8119
449.6438
473.9706
794.7135
0.0 0.115306 0.125063
182.9004
184.1131
355.2782
435.0855
459.313
766.05
0.0 0.115306 0.187594
231.1346
243.2168
408.1853
429.5173
450.6365
727.2178
0.0 0.115306 0.250125
277.9418
291.3211
369.7899
386.5462
543.7863
680.6413
0.0 0.115306 -0.312656
324.6384
324.6384
338.1899
338.1899
621.3253
621.3253
0.0 0.230612 0.0
170.2392
217.3434
452.5452
486.18
564.9371
748.2285
0.0 0.230612 0.062531
188.8278
233.5726
472.209
484.0227
560.7302
746.5484
0.0 0.230612 0.125063
234.1945
269.1042
474.2948
514.5146
544.5125
739.7767
0.0 0.230612 0.187594
285.6576
305.8796
451.7555
501.105
567.1211
723.4641
0.0 0.230612 0.250125
334.5332
340.274
416.8473
446.1211
612.0829
694.6229
0.0 0.230612 -0.312656
377.1549
377.1549
386.9983
386.9983
655.6804
655.6804
0.0 0.345918 0.0
283.6988
293.4768
520.612
590.9616
658.8118
678.0158
0.0 0.345918 0.062531
290.4633
306.1283
519.1942
600.8836
635.6866
707.2532
0.0 0.345918 0.125063
307.4308
334.8452
511.5521
583.22
648.1848
736.9812
0.0 0.345918 0.187594
329.458
365.5361
492.2038
535.4364
678.4126
748.9281
0.0 0.345918 0.250125
360.6262
394.7116
461.4224
473.377
702.6949
741.6612
0.0 0.345918 -0.312656
409.8117
409.8117
426.5433
426.5433
723.6023
723.6023
0.0 0.461224 0.0
339.1356
385.1947
545.0886
615.3167
666.53
723.9321
0.0 0.461224 0.062531
348.1298
384.7679
542.9551
603.2235
680.4497
739.1902
0.0 0.461224 0.125063
370.3154
383.0245
534.5333
576.9066
709.092
767.98
0.0 0.461224 0.187594
382.8916
397.5439
516.5477
537.7098
737.9776
787.3839
0.0 0.461224 0.250125
395.8159
426.4389
485.6054
489.2741
761.1124
789.533
0.0 0.461224 -0.312656
432.2699
432.2699
457.5026
457.5026
778.728
778.728
0.0 -0.576531 0.0
354.1095
433.4762
553.7741
583.2823
690.8741
745.5789
0.0 -0.576531 0.062531
361.4592
428.9536
551.095
579.4249
701.2694
757.6226
0.0 -0.576531 0.125063
380.7337
417.8027
541.8668
564.9301
726.2589
783.4702
0.0 -0.576531 0.187594
406.7422
408.1046
524.1697
535.0619
754.5978
803.8505
0.0 -0.576531 0.250125
413.7208
436.212
490.7536
498.3035
779.4999
808.3672
0.0 -0.576531 -0.312656
444.0721
444.0721
467.5929
467.5929
798.4877
798.4877
0.099858 0.172959 0.0
140.1494
204.8628
388.518
490.8063
533.0692
765.5659
0.099858 0.172959 0.062531
162.0069
222.0179
409.7338
489.9379
529.4159
760.5608
0.099858 0.172959 0.125063
213.5461
258.9967
449.9743
491.2101
513.5139
745.9124
0.099858 0.172959 0.187594
268.9111
296.5142
446.3111
478.6093
530.8198
721.4915
0.099858 0.172959 0.250125
317.3991
330.6127
413.8073
428.2355
586.607
686.1626
0.099858 0.172959 -0.312656
355.489
355.489
385.6808
385.6808
640.1914
640.1914
0.099858 0.288265 0.0
237.3735
295.1899
483.3087
574.9996
614.6075
700.6243
0.099858 0.288265 0.062531
245.3831
310.3807
493.5687
578.8556
606.2337
711.1981
0.099858 0.288265 0.125063
267.2499
342.6245
504.7126
564.718
612.4667
727.0886
0.099858 0.288265 0.187594
295.7625
372.6911
493.1748
522.7454
639.1269
729.8598
0.099858 0.288265 0.250125
330.6501
393.5569
456.0467
477.003
665.7907
715.6629
0.099858 0.288265 -0.312656
375.6573
375.6573
444.3644
444.3644
691.6589
691.6589
0.099858 0.403571 0.0
338.8329
355.7548
534.5344
631.4698
641.5
695.0058
0.099858 0.403571 0.062531
336.4984
371.3604
538.2671
608.0433
661.6434
712.5929
0.099858 0.403571 0.125063
337.4529
399.9155
534.9338
581.8754
687.2643
742.5896
0.099858 0.403571 0.187594
341.6207
425.4775
507.9027
554.7585
712.8453
760.0406
0.099858 0.403571 0.250125
356.1838
431.791
475.9124
522.3267
732.7858
759.683
0.099858 0.403571 -0.312656
391.4065
391.4065
490.5214
490.5214
748.3376
748.3376
0.099858 0.518878 0.0
384.8572
415.4482
561.4859
576.7054
674.9315
736.8211
0.099858 0.518878 0.062531
385.9632
420.969
549.3004
585.3666
686.6664
746.7979
0.099858 0.518878 0.125063
383.7008
437.403
527.9935
587.9615
713.3236
769.3612
0.099858 0.518878 0.187594
377.8153
458.1984
497.2411
573.8737
741.5159
787.4508
0.099858 0.518878 0.250125
381.0206
448.4853
487.786
546.2874
764.4873
790.8252
0.099858 0.518878 -0.312656
406.4889
406.4889
514.7004
514.7004
781.4538
781.4538
0.199716 0.345918 0.0
313.9002
388.7462
512.9318
634.4806
644.0243
669.2407
0.199716 0.345918 0.062531
314.8399
401.5454
528.0855
599.6115
673.6894
682.1086
0.199716 0.345918 0.125063
318.3533
427.3299
552.7684
562.235
685.1356
717.9802
0.199716 0.345918 0.187594
323.1966
442.4137
523.0809
557.4807
699.913
736.2209
0.199716 0.345918 0.250125
336.5893
420.0567
504.0255
539.4327
713.7449
735.9715
0.199716 0.345918 -0.312656
371.4862
371.4862
515.693
515.693
725.9773
725.9773
0.199716 0.461224 0.0
384.9818
449.1491
557.7793
565.5687
653.9513
718.162
0.199716 0.461224 0.062531
380.9577
461.2582
549.1027
579.8542
670.869
722.2192
0.199716 0.461224 0.125063
373.2996
478.2649
534.665
603.8277
700.1503
734.2721
0.199716 0.461224 0.187594
362.6656
462.7074
535.8678
608.8183
721.8517
747.9466
0.199716 0.461224 0.250125
357.4801
418.3163
549.18
591.7369
736.3551
751.5332
0.199716 0.461224 -0.312656
375.6699
375.6699
568.0108
568.0108
746.0957
746.0957
0.199716 0.576531 0.0
425.4604
467.3116
524.8462
587.6662
646.493
733.5685
0.199716 0.576531 0.062531
415.7683
486.6374
512.9871
607.0457
659.372
737.2508
0.199716 0.576531 0.125063
401.3693
490.9882
517.9436
631.3745
688.9136
747.4661
0.199716 0.576531 0.187594
383.6135
458.1254
543.9131
632.1891
718.1026
758.1649
0.199716 0.576531 0.250125
370.009
415.147
564.5705
612.5233
738.6277
759.8259
0.199716 0.576531 -0.312656
379.309
379.309
586.8241
586.8241
752.1212
752.1212
0.299574 0.518878 0.0
429.2387
496.2823
532.0074
582.2
623.4769
727.5978
0.299574 0.518878 0.062531
424.9763
485.6434
547.8217
602.4256
641.4461
727.3696
0.299574 0.518878 0.125063
413.8747
466.3477
573.4557
640.8119
678.2918
724.3981
0.299574 0.518878 0.187594
393.5466
435.4579
595.3373
662.7875
707.3212
719.3501
0.299574 0.518878 0.250125
370.7448
395.5979
612.7133
653.504
719.5319
719.806
0.299574 0.518878 -0.312656
367.8611
367.8611
631.7494
631.7494
721.3124
721.3124
P	=	6000.06	V	=	77.32083	E	=	-654.71813054
0.0 0.0 0.0
-0.0
-0.0
0.0
461.0047
461.0047
881.9749
0.0 0.0 0.062502
68.313
68.313
146.5868
455.0153
455.0153
867.4725
0.0 0.0 0.125004
134.6563
134.6563
294.3928
436.8457
436.8457
830.0253
0.0 0.0 0.187506
198.0179
198.0179
406.4278
406.4278
436.5538
781.3987
0.0 0.0 0.250008
258.1641
258.1641
364.8121
364.8121
560.1618
726.0278
0.0 0.0 -0.312509
314.4287
314.4287
314.4287
314.4287
655.9628
655.9628
0.0 0.115347 0.0
88.8764
123.2285
266.1131
476.3544
503.7368
859.7128
0.0 0.115347 0.062502
127.366
145.1933
298.4682
471.7447
499.3518
848.0856
0.0 0.115347 0.125004
191.754
195.8448
377.9907
456.4644
483.5491
817.4373
0.0 0.115347 0.187506
242.0219
256.5652
428.2976
452.2767
478.7613
775.689
0.0 0.115347 0.250008
291.3218
307.5167
388.0697
407.6874
578.0648
725.3796
0.0 0.115347 -0.312509
340.599
340.599
357.1935
357.1935
661.3412
661.3412
0.0 0.230693 0.0
193.3798
230.6232
486.3834
512.0966
601.192
801.314
0.0 0.230693 0.062502
210.2372
247.3901
505.9512
509.7751
596.1617
798.9731
0.0 0.230693 0.125004
253.783
284.1858
499.4154
548.3131
578.6911
790.6805
0.0 0.230693 0.187506
306.4147
322.3875
475.5655
531.7156
604.9928
772.7682
0.0 0.230693 0.250008
358.2803
358.3877
438.743
474.9629
653.7471
742.2841
0.0 0.230693 -0.312509
396.9682
396.9682
413.7974
413.7974
700.9173
700.9173
0.0 0.34604 0.0
307.1984
310.8575
548.8662
633.2105
703.7309
726.8692
0.0 0.34604 0.062502
313.0806
324.0463
547.3274
642.0276
679.8411
756.1669
0.0 0.34604 0.125004
329.1104
354.0089
539.1888
621.103
691.8364
786.359
0.0 0.34604 0.187506
352.6071
386.059
518.77
570.0625
723.2834
798.7254
0.0 0.34604 0.250008
387.3122
416.5479
486.4192
505.615
749.9198
791.6716
0.0 0.34604 -0.312509
439.7892
439.7892
449.8541
449.8541
772.8537
772.8537
0.0 0.461386 0.0
359.0453
407.6102
573.6367
657.4042
712.23
773.2867
0.0 0.461386 0.062502
368.3541
406.8111
571.4429
643.2613
725.9856
789.1153
0.0 0.461386 0.125004
391.4329
404.7351
562.7779
613.0125
754.6931
818.7879
0.0 0.461386 0.187506
405.6998
419.9773
544.2395
570.3342
784.8449
838.979
0.0 0.461386 0.250008
421.2338
450.3958
515.7838
516.0273
810.233
841.4734
0.0 0.461386 -0.312509
460.3431
460.3431
482.9661
482.9661
829.8713
829.8713
0.0 -0.576733 0.0
374.9212
455.6372
582.0603
621.6891
737.4042
796.0717
0.0 -0.576733 0.062502
382.4467
451.1258
579.3566
616.1133
747.3437
808.614
0.0 -0.576733 0.125004
402.3817
440.0515
570.0307
598.2222
772.0414
835.2871
0.0 -0.576733 0.187506
429.6622
431.0927
552.0671
565.3446
801.5507
856.3394
0.0 -0.576733 0.250008
438.3992
460.7949
518.9118
525.5871
828.815
860.9943
0.0 -0.576733 -0.312509
470.5755
470.5755
493.7536
493.7536
850.052
850.052
0.099893 0.17302 0.0
162.6603
218.9247
415.8433
519.2242
565.2489
819.2048
0.099893 0.17302 0.062502
182.0591
236.1602
437.0375
518.4188
560.9972
813.4977
0.099893 0.17302 0.125004
231.1355
273.7529
475.6446
522.087
543.6201
797.1372
0.099893 0.17302 0.187506
287.3042
312.5566
469.7377
506.9432
566.0878
770.6752
0.099893 0.17302 0.250008
338.234
348.3226
436.0426
454.8106
626.2049
733.0519
0.099893 0.17302 -0.312509
375.7895
375.7895
409.4207
409.4207
683.9618
683.9618
0.099893 0.288366 0.0
262.4016
314.8915
513.4679
613.4101
655.2121
751.6839
0.099893 0.288366 0.062502
268.6446
330.258
522.9327
617.0666
646.7866
761.6811
0.099893 0.288366 0.125004
288.3072
363.0765
532.7389
600.7949
653.9459
776.8656
0.099893 0.288366 0.187506
317.4849
394.3606
520.7013
556.0064
682.0754
779.2766
0.099893 0.288366 0.250008
355.0145
416.8261
484.96
506.3443
711.096
764.614
0.099893 0.288366 -0.312509
401.4628
401.4628
472.1182
472.1182
739.2784
739.2784
0.099893 0.403713 0.0
363.5619
378.6212
566.2429
676.9284
684.476
742.1451
0.099893 0.403713 0.062502
359.5147
394.8673
569.2171
649.806
706.3589
760.7736
0.099893 0.403713 0.125004
358.7964
423.9477
565.2442
619.1715
732.7375
791.9563
0.099893 0.403713 0.187506
363.4234
450.7642
538.3177
588.1371
759.4665
810.2632
0.099893 0.403713 0.250008
380.54
458.7193
505.8371
553.8887
781.1431
810.2758
0.099893 0.403713 -0.312509
418.1623
418.1623
520.9143
520.9143
798.2982
798.2982
0.099893 0.51906 0.0
409.319
440.0457
592.6395
616.4412
720.3709
786.3962
0.099893 0.51906 0.062502
409.5025
445.8583
581.1938
622.2923
731.9787
796.9381
0.099893 0.51906 0.125004
405.725
463.1543
558.2915
622.5169
758.7915
820.4338
0.099893 0.51906 0.187506
399.7802
485.2911
525.8512
607.0709
788.1923
839.2003
0.099893 0.51906 0.250008
404.62
475.1629
517.4204
578.6727
813.3027
842.6868
0.099893 0.51906 -0.312509
431.9391
431.9391
546.0139
546.0139
832.3159
832.3159
0.199786 0.34604 0.0
340.9385
415.6256
547.1657
681.5883
685.0658
714.2516
0.199786 0.34604 0.062502
339.9863
427.9693
561.6349
640.4992
718.9866
728.4341
0.199786 0.34604 0.125004
340.5977
453.4123
584.9134
599.4587
731.2478
765.9744
0.199786 0.34604 0.187506
345.2999
469.3742
557.5602
589.2494
746.8639
785.213
0.199786 0.34604 0.250008
361.3574
448.3434
537.0904
572.0334
761.57
785.2961
0.199786 0.34604 -0.312509
398.946
398.946
548.84
548.84
774.7939
774.7939
0.199786 0.461386 0.0
413.966
479.8481
594.7296
607.5878
696.204
765.6793
0.199786 0.461386 0.062502
407.9683
491.6315
586.2454
618.4669
714.7043
770.0897
0.199786 0.461386 0.125004
397.1393
508.0092
569.1023
640.4931
745.8292
783.0279
0.199786 0.461386 0.187506
385.657
491.9629
569.5574
645.0654
768.8294
797.3934
0.199786 0.461386 0.250008
382.4599
446.8915
584.4582
628.587
784.4493
801.2199
0.199786 0.461386 -0.312509
403.0763
403.0763
604.7752
604.7752
795.267
795.267
0.199786 0.576733 0.0
455.7611
499.2377
563.9695
624.1102
690.1222
781.9639
0.199786 0.576733 0.062502
444.0867
518.7602
548.31
645.2394
703.1558
785.9293
0.199786 0.576733 0.125004
426.6704
521.7989
550.4125
670.0187
733.2399
796.8957
0.199786 0.576733 0.187506
407.8387
486.426
577.7445
670.7296
763.7082
808.2121
0.199786 0.576733 0.250008
395.555
442.7371
600.5637
651.022
786.1662
809.9647
0.199786 0.576733 -0.312509
406.4418
406.4418
624.6166
624.6166
801.4245
801.4245
0.299679 0.51906 0.0
463.2425
535.0902
568.0652
622.2851
664.4783
775.0929
0.299679 0.51906 0.062502
456.4599
520.9048
584.3429
643.0069
683.8536
774.5666
0.299679 0.51906 0.125004
441.3042
497.2248
609.903
681.9359
722.7304
771.1261
0.299679 0.51906 0.187506
419.3494
464.1364
632.7958
704.324
753.4336
766.1598
0.299679 0.51906 0.250008
397.8027
424.2327
652.1708
695.4346
766.9521
767.126
0.299679 0.51906 -0.312509
396.5223
396.5223
673.0295
673.0295
769.1316
769.1316
P	=	6999.96	V	=	74.22634	E	=	-654.58166444
0.0 0.0 0.0
0.0
0.0
0.0
477.4454
477.4454
931.2289
0.0 0.0 0.062479
70.4602
70.4602
156.1366
471.794
471.794
916.5105
0.0 0.0 0.124958
138.9645
138.9645
311.6835
454.1776
454.1776
877.8456
0.0 0.0 0.187437
204.7271
204.7271
423.5652
423.5652
459.5858
825.9895
0.0 0.0 0.249915
267.7611
267.7611
380.375
380.375
588.1449
765.3673
0.0 0.0 -0.312394
327.2181
327.2181
327.2181
327.2181
689.3524
689.3524
0.0 0.115374 0.0
103.4468
130.3048
283.2581
495.3023
525.8224
908.8877
0.0 0.115374 0.062479
140.9144
152.3501
316.4863
490.7614
521.2296
896.9033
0.0 0.115374 0.124958
199.7145
207.8877
399.8357
475.4619
504.9171
864.9129
0.0 0.115374 0.187437
251.6735
268.6229
446.7127
472.8683
505.6681
820.4233
0.0 0.115374 0.249915
303.3433
321.7799
405.0111
426.9902
609.6436
766.1112
0.0 0.115374 -0.312394
355.2516
355.2516
374.3102
374.3102
697.4994
697.4994
0.0 0.230748 0.0
215.1072
243.3885
516.9623
535.9786
633.8342
849.3237
0.0 0.230748 0.062479
230.6596
260.0758
533.2323
536.2721
627.7836
846.4169
0.0 0.230748 0.124958
272.2944
297.2649
521.8326
578.5584
608.9439
836.748
0.0 0.230748 0.187437
325.2897
336.8353
496.7436
558.8067
639.4658
817.3641
0.0 0.230748 0.249915
374.72
379.8992
458.6371
500.8905
692.0506
785.5497
0.0 0.230748 -0.312394
415.3382
415.3382
438.1119
438.1119
742.3163
742.3163
0.0 0.346122 0.0
327.4758
329.3896
576.1205
671.5572
744.5054
771.0735
0.0 0.346122 0.062479
334.4351
340.5575
573.912
679.2711
719.652
800.1989
0.0 0.346122 0.124958
349.4201
370.7983
564.2587
655.2442
730.9135
830.417
0.0 0.346122 0.187437
374.1244
404.1124
542.3764
601.2941
763.7769
843.1615
0.0 0.346122 0.249915
412.164
436.4527
508.971
535.1362
792.9812
836.7572
0.0 0.346122 -0.312394
467.6442
467.6442
471.3449
471.3449
817.7396
817.7396
0.0 0.461497 0.0
377.9393
428.2637
601.6735
695.9324
753.6962
817.9629
0.0 0.461497 0.062479
387.1521
427.4428
598.8639
680.176
767.155
834.086
0.0 0.461497 0.124958
410.4496
425.5942
588.8356
646.5714
795.8223
864.3119
0.0 0.461497 0.187437
427.7821
440.1175
569.0658
600.8058
827.219
885.2115
0.0 0.461497 0.249915
445.5793
472.2172
540.0648
544.1249
854.7539
888.2147
0.0 0.461497 -0.312394
486.9085
486.9085
506.1776
506.1776
876.1354
876.1354
0.0 -0.576871 0.0
394.6088
475.5721
609.9514
657.317
779.542
841.7237
0.0 -0.576871 0.062479
402.0434
471.6153
606.7073
650.4582
789.0635
854.6133
0.0 -0.576871 0.124958
422.1694
461.6008
596.1936
629.8161
813.5252
881.9412
0.0 -0.576871 0.187437
450.4934
453.7445
577.181
594.2075
844.1214
903.5738
0.0 -0.576871 0.249915
462.2993
483.2083
545.6636
550.0435
873.4394
908.352
0.0 -0.576871 -0.312394
495.7923
495.7923
517.4702
517.4702
896.5492
896.5492
0.099917 0.173061 0.0
183.6067
232.0168
440.4487
545.0458
594.0318
867.7783
0.099917 0.173061 0.062479
201.401
248.8934
461.4744
544.172
589.046
861.5366
0.099917 0.173061 0.124958
248.0532
286.4697
498.5319
550.0176
570.1102
843.754
0.099917 0.173061 0.187437
304.0204
326.5198
490.7151
532.0315
598.4378
815.4154
0.099917 0.173061 0.249915
356.9108
364.3373
456.2454
478.7568
662.6885
775.6915
0.099917 0.173061 -0.312394
394.1788
394.1788
431.2177
431.2177
723.9722
723.9722
0.099917 0.288435 0.0
286.1088
333.007
541.5703
648.7339
692.2957
797.8698
0.099917 0.288435 0.062479
290.6538
348.0067
549.978
651.7555
683.4243
807.2453
0.099917 0.288435 0.124958
307.8702
380.608
557.9081
632.9773
690.9695
821.4988
0.099917 0.288435 0.187437
337.3159
413.1217
545.0186
585.7328
720.8038
823.5624
0.099917 0.288435 0.249915
377.3691
437.7597
510.7481
533.3674
752.5459
808.9211
0.099917 0.288435 -0.312394
425.033
425.033
497.8199
497.8199
782.8698
782.8698
0.099917 0.40381 0.0
386.8881
399.7488
596.441
718.4094
723.9454
785.0166
0.099917 0.40381 0.062479
381.2371
416.1839
598.2661
688.044
746.9666
804.2328
0.099917 0.40381 0.124958
378.9135
445.0588
592.6709
653.3198
773.6109
836.0581
0.099917 0.40381 0.187437
383.9389
472.9973
565.5576
618.5307
801.4975
855.1304
0.099917 0.40381 0.249915
403.4974
483.0651
533.2287
582.6163
825.0791
855.8667
0.099917 0.40381 -0.312394
443.1412
443.1412
548.8087
548.8087
843.7045
843.7045
0.099917 0.519184 0.0
432.0396
462.792
622.6264
653.3686
761.7077
831.3608
0.099917 0.519184 0.062479
431.2449
468.9843
611.0275
657.1456
773.0809
842.2116
0.099917 0.519184 0.124958
426.4073
486.7221
586.3115
654.667
799.9037
866.2992
0.099917 0.519184 0.187437
420.7817
509.8267
552.2572
637.3654
830.4162
885.6397
0.099917 0.519184 0.249915
427.133
499.9087
544.4964
608.0615
857.4914
889.3488
0.099917 0.519184 -0.312394
455.9192
455.9192
574.5666
574.5666
878.2575
878.2575
0.199834 0.346122 0.0
366.6889
439.6199
579.4358
722.9686
724.5991
755.5129
0.199834 0.346122 0.062479
363.9126
451.0983
592.7572
677.8354
760.1034
770.5939
0.199834 0.346122 0.124958
361.4781
475.5651
613.8866
633.1643
772.5124
808.9931
0.199834 0.346122 0.187437
365.8639
492.4383
588.7615
617.4757
789.0124
829.0567
0.199834 0.346122 0.249915
384.588
473.7294
567.1834
601.3002
805.0689
829.8954
0.199834 0.346122 -0.312394
424.5348
424.5348
579.0041
579.0041
819.3539
819.3539
0.199834 0.461497 0.0
441.6133
507.5316
629.1347
646.7357
735.0949
809.1561
0.199834 0.461497 0.062479
433.7273
518.6287
620.5148
654.3106
754.7125
813.5249
0.199834 0.461497 0.124958
419.6882
533.948
600.6273
673.712
786.9927
826.7127
0.199834 0.461497 0.187437
407.265
517.9837
599.789
677.4574
811.0802
841.6568
0.199834 0.461497 0.249915
406.0149
473.0599
616.23
661.645
827.994
846.0211
0.199834 0.461497 -0.312394
428.7566
428.7566
638.007
638.007
839.8798
839.8798
0.199834 0.576871 0.0
484.5097
528.3436
601.0288
657.9711
729.9384
826.1506
0.199834 0.576871 0.062479
470.8398
547.8384
581.5141
680.5433
742.9273
830.0526
0.199834 0.576871 0.124958
450.3957
550.3601
579.3591
705.0771
773.2347
841.1912
0.199834 0.576871 0.187437
430.4901
512.4062
607.8731
705.2381
804.8285
852.9692
0.199834 0.576871 0.249915
419.539
468.2729
632.9571
685.5721
829.1538
855.0396
0.199834 0.576871 -0.312394
431.8571
431.8571
658.7569
658.7569
845.9889
845.9889
0.299751 0.519184 0.0
495.9356
572.0696
600.622
659.0912
701.9474
818.6772
0.299751 0.519184 0.062479
486.5342
553.9839
617.2752
679.9815
722.3992
817.4907
0.299751 0.519184 0.124958
466.9867
525.6035
642.2488
718.9039
762.7046
812.9254
0.299751 0.519184 0.187437
443.1731
490.1926
666.0112
741.3857
794.8089
807.8829
0.299751 0.519184 0.249915
422.9277
450.5434
687.5453
732.927
809.7297
809.7432
0.299751 0.519184 -0.312394
423.1924
423.1924
710.1859
710.1859
812.4281
812.4281
P	=	8000.02	V	=	71.56734	E	=	-654.44629487
0.0 0.0 0.0
-0.0
-0.0
0.0
494.7749
494.7749
976.7771
0.0 0.0 0.062455
72.7279
72.7279
166.6582
488.942
488.942
962.0541
0.0 0.0 0.12491
143.7939
143.7939
329.8806
470.8107
470.8107
922.5403
0.0 0.0 0.187366
212.4104
212.4104
439.3762
439.3762
482.2806
867.5427
0.0 0.0 0.249821
278.2556
278.2556
394.9823
394.9823
614.169
801.5087
0.0 0.0 -0.312276
340.0799
340.0799
340.0799
340.0799
719.7363
719.7363
0.0 0.115398 0.0
116.2946
137.9861
298.8877
514.6042
547.4493
953.8947
0.0 0.115398 0.062455
154.3285
159.317
332.8362
509.5378
542.2431
941.743
0.0 0.115398 0.12491
206.7869
220.0176
420.2534
493.0932
524.6438
908.7816
0.0 0.115398 0.187366
260.911
280.2801
463.3285
491.4466
531.0542
861.7773
0.0 0.115398 0.249821
315.6315
335.4402
420.8686
444.6486
638.9572
803.5549
0.0 0.115398 -0.312276
369.8995
369.8995
390.4334
390.4334
730.6804
730.6804
0.0 0.230797 0.0
234.9474
256.802
544.8824
559.2344
663.9214
892.3817
0.0 0.230797 0.062455
249.4139
272.2136
555.4172
563.6631
656.6802
889.0308
0.0 0.230797 0.12491
289.0714
308.1883
541.8797
605.4173
636.3731
878.3008
0.0 0.230797 0.187366
342.0186
349.2989
515.4515
582.8934
670.9089
857.8894
0.0 0.230797 0.249821
390.4699
399.1026
477.2104
524.1977
727.4651
825.2784
0.0 0.230797 -0.312276
433.4361
433.4361
460.077
460.077
780.6505
780.6505
0.0 0.346195 0.0
344.1106
350.1702
602.2183
706.5284
782.0249
810.418
0.0 0.346195 0.062455
354.3099
356.1613
598.8518
712.9154
756.0236
839.5284
0.0 0.346195 0.12491
367.9607
385.3018
586.8929
685.9841
766.2543
869.7074
0.0 0.346195 0.187366
393.5345
419.8654
563.5876
629.4688
800.583
883.1485
0.0 0.346195 0.249821
434.7569
455.1222
530.0955
562.009
832.6365
877.9878
0.0 0.346195 -0.312276
492.1232
492.1232
493.135
493.135
859.2207
859.2207
0.0 0.461593 0.0
395.9879
447.4692
628.5761
730.9739
791.709
859.5969
0.0 0.461593 0.062455
404.733
446.7785
624.9484
714.1227
804.7294
875.4151
0.0 0.461593 0.12491
427.6566
445.349
613.22
677.7457
833.2229
905.4972
0.0 0.461593 0.187366
448.7216
458.3941
592.2034
629.2027
865.9571
927.0131
0.0 0.461593 0.249821
468.5754
492.6092
562.7455
570.6311
895.7787
930.893
0.0 0.461593 -0.312276
511.8811
511.8811
528.2359
528.2359
918.7641
918.7641
0.0 -0.576992 0.0
413.0527
493.6056
636.8093
690.629
818.3551
884.4966
0.0 -0.576992 0.062455
420.2949
490.4977
632.9703
682.8886
827.3731
897.2021
0.0 -0.576992 0.12491
440.433
482.0679
621.1589
659.9819
851.5082
924.4231
0.0 -0.576992 0.187366
469.7504
475.5415
601.0264
621.7635
883.2476
946.4098
0.0 -0.576992 0.249821
485.2156
504.1531
571.1195
573.2109
914.6311
951.5827
0.0 -0.576992 -0.312276
519.8137
519.8137
539.8449
539.8449
939.3571
939.3571
0.099938 0.173098 0.0
202.5253
245.2457
463.1461
570.0071
620.938
911.5679
0.099938 0.173098 0.062455
219.2645
260.818
483.561
568.5533
614.9107
904.9332
0.099938 0.173098 0.12491
263.6179
297.1573
518.6134
575.684
593.899
886.0647
0.099938 0.173098 0.187366
318.9288
338.7172
509.2125
554.3457
628.1609
856.252
0.099938 0.173098 0.249821
373.7136
379.6891
474.9634
500.3478
696.5283
814.8843
0.099938 0.173098 -0.312276
411.6593
411.6593
451.5344
451.5344
761.0168
761.0168
0.099938 0.288496 0.0
308.1317
350.6631
567.6858
681.6838
726.5581
838.9731
0.099938 0.288496 0.062455
310.9602
364.4318
574.6232
683.4899
717.0997
847.7994
0.099938 0.288496 0.12491
325.3466
395.5655
580.0594
661.6976
724.6006
861.2682
0.099938 0.288496 0.187366
354.6992
429.3223
566.3663
612.234
756.1399
863.4411
0.099938 0.288496 0.249821
397.4341
457.0563
533.9645
558.241
790.9675
849.5796
0.099938 0.288496 -0.312276
446.6893
446.6893
521.9192
521.9192
823.4127
823.4127
0.099938 0.403894 0.0
408.8532
419.8355
624.7391
755.6604
760.4889
825.0407
0.099938 0.403894 0.062455
401.5756
435.9667
625.1824
722.7877
784.1549
843.9449
0.099938 0.403894 0.12491
397.4421
463.883
617.4484
684.3312
810.7235
875.6392
0.099938 0.403894 0.187366
402.7225
492.863
589.9796
646.2338
839.8578
895.5489
0.099938 0.403894 0.249821
424.7819
505.4608
558.392
609.1762
865.7313
897.6395
0.099938 0.403894 -0.312276
466.4055
466.4055
574.9083
574.9083
885.8431
885.8431
0.099938 0.519293 0.0
453.3082
483.8575
651.1991
687.6384
800.0346
873.6158
0.099938 0.519293 0.062455
451.4098
490.5026
639.1274
689.7779
810.9061
884.1848
0.099938 0.519293 0.12491
445.6098
508.4688
612.5204
684.6747
837.4096
907.9783
0.099938 0.519293 0.187366
440.4841
532.4523
576.8388
665.506
869.1005
927.6968
0.099938 0.519293 0.249821
448.427
523.137
569.6929
635.483
898.3617
932.0657
0.099938 0.519293 -0.312276
478.5943
478.5943
601.3285
601.3285
920.7673
920.7673
0.199876 0.346195 0.0
390.9758
462.015
609.0949
758.2882
763.0844
794.5205
0.199876 0.346195 0.062455
386.3634
472.136
620.9063
711.8036
798.4975
808.5402
0.199876 0.346195 0.12491
380.5929
494.8285
639.4787
663.3862
810.2807
847.235
0.199876 0.346195 0.187366
384.4228
512.5018
616.6126
642.4376
827.6593
868.3974
0.199876 0.346195 0.249821
405.9261
496.5889
594.6066
627.8332
845.6562
870.9275
0.199876 0.346195 -0.312276
448.1587
448.1587
606.8033
606.8033
861.1029
861.1029
0.199876 0.461593 0.0
467.8165
533.3326
661.1643
682.6608
771.8018
850.3182
0.199876 0.461593 0.062455
458.0528
543.4039
651.9598
687.2974
791.6662
854.0637
0.199876 0.461593 0.12491
440.6109
557.1637
629.1166
703.7142
824.2769
866.4161
0.199876 0.461593 0.187366
427.1315
541.18
626.9496
706.6408
849.6212
881.7147
0.199876 0.461593 0.249821
427.9596
496.8784
645.3339
691.8671
868.5167
887.3417
0.199876 0.461593 -0.312276
452.6819
452.6819
668.7346
668.7346
881.6585
881.6585
0.199876 0.576992 0.0
511.4958
555.6018
635.8713
690.086
767.409
867.9424
0.199876 0.576992 0.062455
495.8531
574.6874
612.7277
713.4047
779.819
871.2041
0.199876 0.576992 0.12491
472.1999
576.7522
605.5196
737.0187
809.6126
881.4771
0.199876 0.576992 0.187366
451.1784
536.0348
635.1404
736.58
842.3529
893.4862
0.199876 0.576992 0.249821
441.8159
491.7698
662.8803
717.412
869.0417
896.5216
0.199876 0.576992 -0.312276
455.6165
455.6165
690.5838
690.5838
887.5597
887.5597
0.299814 0.519293 0.0
526.9665
606.7893
631.2914
693.8428
737.6129
859.9085
0.299814 0.519293 0.062455
514.8938
584.8119
647.7968
714.2572
758.2456
857.5675
0.299814 0.519293 0.12491
490.533
551.3274
671.3304
752.3505
798.786
851.0311
0.299814 0.519293 0.187366
464.6272
513.3404
695.876
774.8732
832.1561
845.841
0.299814 0.519293 0.249821
445.9883
474.3977
720.1695
767.401
849.1886
849.3123
0.299814 0.519293 -0.312276
447.908
447.908
744.8442
744.8442
852.9658
852.9658
P	=	9000.05	V	=	69.24746	E	=	-654.3124002
0.0 0.0 0.0
-0.0
-0.0
0.0
511.9545
511.9545
1018.7626
0.0 0.0 0.062428
77.1304
77.1304
176.8165
506.043
506.043
1004.0873
0.0 0.0 0.124857
151.383
151.383
347.4365
487.4506
487.4506
963.9115
0.0 0.0 0.187285
221.7138
221.7138
454.8202
454.8202
504.0493
906.1493
0.0 0.0 0.249713
288.607
288.607
408.5787
408.5787
638.8694
835.2417
0.0 0.0 -0.312141
351.7912
351.7912
351.7912
351.7912
748.2855
748.2855
0.0 0.11542 0.0
128.3906
146.3118
313.5185
533.3547
568.1052
995.8254
0.0 0.11542 0.062428
167.0794
167.2376
348.4324
527.6664
562.3826
983.4438
0.0 0.11542 0.124857
215.0194
232.2734
439.7654
509.8215
543.6184
949.4599
0.0 0.11542 0.187285
270.8932
292.367
478.7581
509.2057
555.0964
900.1367
0.0 0.11542 0.249713
327.804
348.9059
435.4625
461.3093
666.6454
838.4732
0.0 0.11542 -0.312141
383.639
383.639
405.7014
405.7014
761.8611
761.8611
0.0 0.23084 0.0
253.5506
270.6599
570.9666
581.2439
691.6638
933.4297
0.0 0.23084 0.062428
266.7568
284.4823
576.0137
589.2907
683.374
929.3203
0.0 0.23084 0.124857
304.548
318.7819
559.7236
630.4944
661.8585
916.9956
0.0 0.23084 0.187285
358.0421
361.4395
531.8613
605.4365
700.2696
895.4115
0.0 0.23084 0.249713
406.0077
417.9254
494.1873
546.3263
760.694
862.2919
0.0 0.23084 -0.312141
450.8763
450.8763
481.3733
481.3733
816.6219
816.6219
0.0 0.346259 0.0
360.3374
369.3494
626.5461
738.98
816.5065
848.4978
0.0 0.346259 0.062428
371.2089
372.5128
621.818
744.2492
789.8838
876.7518
0.0 0.346259 0.124857
384.9714
399.0514
607.228
714.5779
799.1135
906.4183
0.0 0.346259 0.187285
411.9321
434.9563
582.5942
655.6094
834.8866
920.3546
0.0 0.346259 0.249713
456.6357
473.2693
549.666
587.2621
869.7045
916.4631
0.0 0.346259 -0.312141
512.0832
512.0832
517.5978
517.5978
898.0341
898.0341
0.0 0.461679 0.0
412.8728
465.1327
653.3011
764.4776
826.7891
898.1037
0.0 0.461679 0.062428
421.4432
464.5972
649.0787
746.1822
839.693
913.9361
0.0 0.461679 0.124857
444.4374
463.7773
636.0892
706.8338
868.3203
944.1505
0.0 0.461679 0.187285
468.5814
476.2342
614.0829
655.5881
902.3006
966.19
0.0 0.461679 0.249713
490.4517
512.1373
584.1641
595.3404
934.0556
970.6975
0.0 0.461679 -0.312141
535.4025
535.4025
549.0767
549.0767
958.421
958.421
0.0 -0.577099 0.0
430.076
510.584
661.2958
721.6979
854.12
924.174
0.0 -0.577099 0.062428
437.6359
508.2391
657.324
713.0919
863.0144
936.9773
0.0 -0.577099 0.124857
458.5429
501.3453
645.0723
688.1029
887.3352
964.4235
0.0 -0.577099 0.187285
488.7639
496.1296
624.1482
647.4948
920.1328
986.661
0.0 -0.577099 0.249713
506.7242
524.0894
594.8387
595.2756
953.0586
991.8569
0.0 -0.577099 -0.312141
542.1953
542.1953
560.7943
560.7943
979.0567
979.0567
0.099956 0.17313 0.0
220.3021
258.6649
484.6409
593.3858
646.1048
953.0618
0.099956 0.17313 0.062428
235.8612
272.779
504.3655
591.1945
639.1122
945.7864
0.099956 0.17313 0.124857
278.1388
307.63
536.8697
599.5501
616.169
925.4093
0.099956 0.17313 0.187285
333.3643
350.6685
525.6674
575.3125
655.9788
894.0509
0.099956 0.17313 0.249713
390.2245
394.7228
492.1631
520.908
728.3382
851.3945
0.099956 0.17313 -0.312141
428.453
428.453
471.1647
471.1647
795.8074
795.8074
0.099956 0.288549 0.0
328.6257
367.7226
592.1842
712.3726
758.2458
878.7113
0.099956 0.288549 0.062428
329.632
380.0554
597.3986
713.0415
748.2634
886.46
0.099956 0.288549 0.124857
341.2543
409.4568
599.8222
688.3985
755.6903
898.3685
0.099956 0.288549 0.187285
371.0851
444.5783
585.3155
636.8492
789.0106
900.3696
0.099956 0.288549 0.249713
416.9714
475.6113
555.4543
581.7883
826.9751
887.4832
0.099956 0.288549 -0.312141
467.6047
467.6047
545.0734
545.0734
861.4676
861.4676
0.099956 0.403969 0.0
429.1369
438.6628
650.9581
791.8194
794.5728
862.088
0.099956 0.403969 0.062428
420.3362
454.4443
650.0843
755.6981
819.0159
881.0269
0.099956 0.403969 0.124857
414.5885
481.5227
640.2352
713.2057
845.3191
912.6083
0.099956 0.403969 0.187285
420.5321
511.6628
612.3927
671.8942
875.6252
933.1979
0.099956 0.403969 0.249713
445.3066
526.6273
581.9844
633.9982
903.6986
936.5975
0.099956 0.403969 -0.312141
488.6241
488.6241
599.5698
599.5698
925.2131
925.2131
0.099956 0.519389 0.0
473.0447
503.7007
677.5281
720.1755
835.6733
912.863
0.099956 0.519389 0.062428
470.4347
510.643
665.306
720.4682
846.2713
923.344
0.099956 0.519389 0.124857
463.9257
529.0456
637.1971
712.7207
872.6904
947.0314
0.099956 0.519389 0.187285
459.2809
554.001
599.9561
691.8626
905.4158
967.0126
0.099956 0.519389 0.249713
468.6518
544.9717
593.3472
661.1262
936.4791
971.8132
0.099956 0.519389 -0.312141
499.9574
499.9574
626.2964
626.2964
960.2592
960.2592
0.199913 0.346259 0.0
413.5094
482.7115
636.8226
791.5387
800.7031
830.7295
0.199913 0.346259 0.062428
407.0443
491.5026
647.0027
744.109
834.0705
844.6577
0.199913 0.346259 0.124857
398.1084
512.4724
662.8034
691.5998
845.2015
882.9321
0.199913 0.346259 0.187285
401.9401
531.0003
642.4036
665.1512
863.5325
904.8494
0.199913 0.346259 0.249713
426.6594
517.9759
620.4004
652.4083
883.6244
909.1767
0.199913 0.346259 -0.312141
470.9039
470.9039
632.9507
632.9507
900.2551
900.2551
0.199913 0.461679 0.0
492.4732
557.2611
691.0781
717.6272
806.5808
888.639
0.199913 0.461679 0.062428
480.8007
566.3932
681.7214
718.49
826.6017
891.7959
0.199913 0.461679 0.124857
460.0477
578.6989
655.7241
731.5721
859.1045
903.3135
0.199913 0.461679 0.187285
445.8617
562.5408
652.1764
733.6422
885.4445
918.8607
0.199913 0.461679 0.249713
449.0429
519.089
672.4123
719.8892
906.283
925.7611
0.199913 0.461679 -0.312141
475.5141
475.5141
697.2984
697.2984
920.6354
920.6354
0.199913 0.577099 0.0
537.4323
581.147
669.2772
720.1608
802.8011
906.9042
0.199913 0.577099 0.062428
519.6211
599.9083
642.2892
744.2397
814.613
909.5707
0.199913 0.577099 0.124857
492.6086
601.3853
630.0199
766.7325
843.7347
918.9439
0.199913 0.577099 0.187285
470.5484
557.9279
660.5725
765.6384
877.3579
931.0237
0.199913 0.577099 0.249713
462.9568
513.7851
690.6774
746.9265
906.1739
934.9724
0.199913 0.577099 -0.312141
478.1872
478.1872
720.0905
720.0905
926.195
926.195
0.299869 0.519389 0.0
556.745
640.4863
660.2448
726.6642
771.5495
898.3768
0.299869 0.519389 0.062428
541.8156
614.1887
676.684
746.4717
792.1446
894.8764
0.299869 0.519389 0.124857
512.4007
575.2189
698.5186
783.4219
832.3672
886.3241
0.299869 0.519389 0.187285
484.5271
534.5554
723.5729
805.8103
866.6376
880.9001
0.299869 0.519389 0.249713
467.875
496.7116
750.3595
799.26
885.7638
886.016
0.299869 0.519389 -0.312141
471.4957
471.4957
776.9003
776.9003
890.6855
890.6855
P	=	9999.85	V	=	67.19459	E	=	-654.17994632
0.0 0.0 0.0
-0.0
-0.0
0.0
529.416
529.416
1057.7675
0.0 0.0 0.062396
80.8252
80.8252
184.5962
523.0054
523.0054
1042.9252
0.0 0.0 0.124793
158.0236
158.0236
361.7084
503.0642
503.0642
1001.8605
0.0 0.0 0.187189
230.2368
230.2368
468.6277
468.6277
523.2442
941.8018
0.0 0.0 0.249585
298.2495
298.2495
420.6117
420.6117
662.1753
867.1398
0.0 0.0 -0.311982
362.4421
362.4421
362.4421
362.4421
775.7945
775.7945
0.0 0.115441 0.0
138.9932
154.1706
327.3346
551.6296
588.149
1034.7484
0.0 0.115441 0.062396
174.5674
177.5683
362.8785
545.0823
581.6536
1022.0157
0.0 0.115441 0.124793
222.4895
242.3707
457.3061
525.3382
561.2217
986.9183
0.0 0.115441 0.187189
280.0906
303.1957
492.6487
525.3907
576.9848
935.651
0.0 0.115441 0.249585
339.1349
361.7094
448.6024
476.7108
692.6362
871.3108
0.0 0.115441 -0.311982
396.2681
396.2681
420.22
420.22
791.4917
791.4917
0.0 0.230882 0.0
270.1106
283.5822
595.6609
601.4528
717.3037
971.5574
0.0 0.230882 0.062396
282.2627
295.9456
594.8919
613.3665
707.9604
966.7334
0.0 0.230882 0.124793
318.5524
328.6727
576.0146
653.6767
685.362
952.9305
0.0 0.230882 0.187189
372.7841
372.9545
546.8599
626.3553
727.5168
930.3343
0.0 0.230882 0.249585
420.5212
435.9312
509.8462
567.3065
791.739
896.883
0.0 0.230882 -0.311982
467.0953
467.0953
501.8623
501.8623
850.319
850.319
0.0 0.346324 0.0
375.3241
386.8129
648.3371
769.4406
848.3254
884.097
0.0 0.346324 0.062396
385.233
389.153
642.5054
773.3526
821.4157
911.4773
0.0 0.346324 0.124793
400.6779
412.0575
625.8163
740.8699
829.8724
940.6719
0.0 0.346324 0.187189
429.1399
449.2426
600.2376
679.844
866.9156
955.1372
0.0 0.346324 0.249585
477.2734
490.3037
567.9484
610.9504
904.3789
952.511
0.0 0.346324 -0.311982
530.7384
530.7384
540.6973
540.6973
934.4108
934.4108
0.0 0.461765 0.0
428.4333
481.7405
675.4053
796.092
859.4265
934.1104
0.0 0.461765 0.062396
437.0351
481.0476
670.8694
776.0458
872.3486
950.0964
0.0 0.461765 0.124793
460.4001
480.3743
657.2031
733.5278
901.1156
980.5554
0.0 0.461765 0.187189
486.5906
493.2185
634.6146
679.7629
936.2149
1003.0907
0.0 0.461765 0.249585
510.765
530.5109
604.2874
618.252
969.8205
1008.1324
0.0 0.461765 -0.311982
557.4359
557.4359
568.5837
568.5837
995.6029
995.6029
0.0 -0.577206 0.0
445.7741
526.9203
683.2307
751.0771
887.3371
961.4653
0.0 -0.577206 0.062396
453.8375
524.7663
679.3951
741.2435
896.1981
974.521
0.0 -0.577206 0.124793
475.7891
518.5216
667.2605
713.742
920.7586
1002.3086
0.0 -0.577206 0.187189
506.8826
514.4965
645.9284
670.8691
954.5159
1024.7164
0.0 -0.577206 0.249585
526.5356
542.8553
616.0424
616.7464
988.9195
1029.7838
0.0 -0.577206 -0.311982
563.1464
563.1464
580.4066
580.4066
1016.2587
1016.2587
0.099975 0.173162 0.0
236.0216
271.1677
504.9471
615.0686
669.7229
991.5801
0.099975 0.173162 0.062396
250.4935
283.8745
523.7857
612.1497
661.7018
983.6742
0.099975 0.173162 0.124793
290.9947
317.2446
553.4822
621.6396
636.76
961.8741
0.099975 0.173162 0.187189
346.6229
361.7027
540.6223
594.7759
681.7431
929.1937
0.099975 0.173162 0.249585
405.9111
408.6969
508.0793
540.416
758.0686
885.5475
0.099975 0.173162 -0.311982
444.0583
444.0583
490.0713
490.0713
828.4589
828.4589
0.099975 0.288603 0.0
347.0137
383.5012
614.3404
741.0739
787.5177
915.7486
0.099975 0.288603 0.062396
346.5572
394.5389
617.9211
740.5466
777.1725
922.5328
0.099975 0.288603 0.124793
355.9673
422.3729
617.657
713.0768
784.7168
933.0257
0.099975 0.288603 0.187189
386.4301
458.8234
602.6863
659.8147
819.7005
934.9012
0.099975 0.288603 0.249585
435.2966
492.944
575.436
604.1583
860.6593
922.9658
0.099975 0.288603 -0.311982
487.1014
487.1014
567.0501
567.0501
897.1056
897.1056
0.099975 0.404044 0.0
447.7693
456.0171
674.4166
825.8179
826.3472
896.6436
0.099975 0.404044 0.062396
437.5259
471.5702
672.4787
786.2112
851.8257
915.7163
0.099975 0.404044 0.124793
430.2962
498.0169
661.0163
739.8248
877.8144
947.3035
0.099975 0.404044 0.187189
436.959
529.3339
633.0776
695.6556
909.1174
968.5761
0.099975 0.404044 0.249585
464.3815
546.4298
603.9659
657.1846
939.2331
973.1896
0.099975 0.404044 -0.311982
509.3182
509.3182
622.6719
622.6719
962.1243
962.1243
0.099975 0.519485 0.0
491.2654
522.4566
701.2598
750.931
868.8213
949.7006
0.099975 0.519485 0.062396
488.1287
529.3263
689.0927
749.1442
879.2543
960.2367
0.099975 0.519485 0.124793
480.7476
548.0604
659.8252
738.5977
905.649
983.9582
0.099975 0.519485 0.187189
476.4291
574.0894
621.2448
716.2496
939.2985
1004.1409
0.099975 0.519485 0.249585
487.3691
565.2692
615.3911
684.9915
972.0596
1009.2077
0.099975 0.519485 -0.311982
519.8985
519.8985
649.5738
649.5738
997.247
997.247
0.19995 0.346324 0.0
433.9318
501.8171
661.6982
822.2981
836.0162
864.7021
0.19995 0.346324 0.062396
425.8731
509.4036
670.3695
774.0813
867.5025
878.5567
0.19995 0.346324 0.124793
414.2131
528.8365
683.705
717.8457
878.0749
916.4976
0.19995 0.346324 0.187189
418.1695
548.2445
666.4708
685.8034
897.2412
939.1371
0.19995 0.346324 0.249585
445.8922
537.8908
644.5625
675.1618
919.2218
945.0973
0.19995 0.346324 -0.311982
492.0231
492.0231
657.3924
657.3924
936.9592
936.9592
0.19995 0.461765 0.0
515.2382
579.3994
718.2633
750.6355
838.9687
924.5434
0.19995 0.461765 0.062396
501.7081
587.7156
709.0355
747.4805
859.3548
927.2377
0.19995 0.461765 0.124793
477.785
598.7307
680.3645
757.0419
891.8652
938.103
0.19995 0.461765 0.187189
462.9889
582.3752
675.6271
758.3856
919.059
953.873
0.19995 0.461765 0.249585
468.4914
539.7094
697.6006
745.7618
941.6213
961.8464
0.19995 0.461765 -0.311982
496.6808
496.6808
723.8031
723.8031
957.124
957.124
0.19995 0.577206 0.0
561.7214
604.8364
700.768
747.78
835.7854
943.3647
0.19995 0.577206 0.062396
541.6924
623.3688
669.7685
772.867
847.0941
945.5759
0.19995 0.577206 0.124793
511.3194
624.0896
652.8442
794.2609
875.6187
954.2569
0.19995 0.577206 0.187189
488.2547
578.067
684.2683
792.5146
910.0177
966.3872
0.19995 0.577206 0.249585
482.459
534.1506
716.5101
774.2356
940.8032
971.0527
0.19995 0.577206 -0.311982
499.1209
499.1209
747.4326
747.4326
962.3029
962.3029
0.299925 0.519485 0.0
584.4725
672.1879
687.1927
757.1072
803.2212
934.1865
0.299925 0.519485 0.062396
566.7975
641.5818
703.7252
776.3823
823.9289
929.6303
0.299925 0.519485 0.124793
532.5437
597.3982
723.927
812.2141
863.9455
919.2549
0.299925 0.519485 0.187189
502.7961
554.1648
749.3999
834.3527
899.0172
913.6594
0.299925 0.519485 0.249585
488.0426
517.3417
778.3815
828.6396
920.0086
920.2877
0.299925 0.519485 -0.311982
493.2853
493.2853
806.5281
806.5281
925.9197
925.9197
P	=	11000.08	V	=	65.35706	E	=	-654.04887954
0.0 0.0 0.0
-0.0
-0.0
-0.0
545.4075
545.4075
1094.1777
0.0 0.0 0.062362
83.4654
83.4654
190.6886
538.4731
538.4731
1078.9946
0.0 0.0 0.124725
163.0938
163.0938
373.5957
517.1975
517.1976
1036.8363
0.0 0.0 0.187087
237.3285
237.3285
481.142
481.142
540.4586
974.7931
0.0 0.0 0.249449
306.8751
306.8751
431.6611
431.6611
684.2163
897.2154
0.0 0.0 -0.311812
372.2754
372.2754
372.2754
372.2754
802.1561
802.1561
0.0 0.115462 0.0
147.6316
161.2384
340.1418
568.2665
606.5467
1070.9284
0.0 0.115462 0.062362
181.1097
185.8853
376.2546
561.0469
599.3811
1057.8301
0.0 0.115462 0.124725
229.0554
250.4853
473.3905
539.808
577.5051
1021.6845
0.0 0.115462 0.187087
288.2205
312.4707
505.8012
540.4579
597.2057
968.777
0.0 0.115462 0.249449
349.3749
373.2471
461.0251
491.0649
717.0546
902.2262
0.0 0.115462 -0.311812
407.9804
407.9804
433.6343
433.6343
819.5312
819.5312
0.0 0.230924 0.0
284.2244
295.3396
618.7264
619.7152
740.9708
1006.7165
0.0 0.230924 0.062362
295.8596
306.6453
612.3141
635.9646
730.7966
1001.4539
0.0 0.230924 0.124725
331.3555
338.2298
591.8068
675.5627
707.5213
986.6951
0.0 0.230924 0.187087
383.5313
386.6063
561.8276
646.2484
753.1345
963.3243
0.0 0.230924 0.249449
433.929
452.2722
525.0927
586.9853
820.7412
929.3877
0.0 0.230924 -0.311812
482.2667
482.2667
520.6575
520.6575
881.7751
881.7751
0.0 0.346386 0.0
389.1952
402.6984
668.0581
798.0496
878.0797
916.903
0.0 0.346386 0.062362
398.4937
404.5363
661.6218
800.6606
850.9807
943.8429
0.0 0.346386 0.124725
415.515
424.7472
643.8044
765.6454
858.9983
972.9456
0.0 0.346386 0.187087
445.182
463.04
617.7548
702.7718
897.1667
988.0104
0.0 0.346386 0.249449
496.0943
506.3561
585.7559
633.0395
936.9213
986.4137
0.0 0.346386 -0.311812
548.3796
548.3796
561.8123
561.8123
968.4759
968.4759
0.0 0.461847 0.0
443.0415
497.6862
695.5757
825.6778
890.263
968.1603
0.0 0.461847 0.062362
451.7787
496.5938
691.0
803.9242
903.2031
984.2374
0.0 0.461847 0.124725
475.6519
495.6038
677.2284
758.3243
932.0533
1014.8603
0.0 0.461847 0.187087
502.9495
509.4452
654.4498
702.1507
968.177
1037.8689
0.0 0.461847 0.249449
529.3998
547.9962
623.7178
639.4896
1003.5641
1043.4691
0.0 0.461847 -0.311812
577.8348
577.8348
587.2295
587.2295
1030.7222
1030.7222
0.0 -0.577309 0.0
460.5762
542.8054
703.3549
779.0127
918.8287
996.8668
0.0 -0.577309 0.062362
469.1164
540.3565
699.7924
767.7204
927.5719
1010.0786
0.0 -0.577309 0.124725
492.0705
533.9344
688.105
737.3483
952.1929
1038.0244
0.0 -0.577309 0.187087
524.0488
530.8728
666.7086
692.2121
986.8365
1060.5753
0.0 -0.577309 0.249449
544.745
560.7546
636.0126
637.0136
1022.809
1065.673
0.0 -0.577309 -0.311812
582.7403
582.7403
599.2426
599.2426
1051.5441
1051.5441
0.099993 0.173193 0.0
249.193
282.491
523.6141
634.8887
691.5652
1027.1539
0.099993 0.173193 0.062362
263.0538
294.0722
541.7835
631.585
682.752
1018.8309
0.099993 0.173193 0.124725
302.5003
326.2156
569.2814
642.4967
656.2625
996.0449
0.099993 0.173193 0.187087
358.7081
371.8434
555.2328
613.347
705.9283
962.3164
0.099993 0.173193 0.249449
420.2871
421.4361
523.2638
558.7862
785.8515
917.6563
0.099993 0.173193 -0.311812
458.5644
458.5644
507.4915
507.4915
858.9936
858.9936
0.099993 0.288655 0.0
363.1813
397.9631
634.1343
768.0049
814.8432
949.7335
0.099993 0.288655 0.062362
361.8624
408.039
636.611
766.453
804.3331
956.0016
0.099993 0.288655 0.124725
369.9572
434.6879
634.7059
736.5652
812.2409
965.7575
0.099993 0.288655 0.187087
400.9697
472.2464
619.7146
681.7745
848.697
967.6724
0.099993 0.288655 0.249449
452.1346
509.0185
594.3562
625.283
892.1852
956.3479
0.099993 0.288655 -0.311812
505.0404
505.0404
587.4007
587.4007
930.3704
930.3704
0.099993 0.404116 0.0
464.9832
472.1119
695.5177
856.3225
857.0988
929.2074
0.099993 0.404116 0.062362
453.4714
487.6343
692.9161
814.5238
882.8164
948.3515
0.099993 0.404116 0.124725
445.0483
513.6494
680.5899
764.7176
908.6536
980.0587
0.099993 0.404116 0.187087
452.3005
546.009
652.82
718.0486
940.812
1002.0246
0.099993 0.404116 0.249449
481.9271
564.9542
624.5926
679.0235
972.6856
1007.6727
0.099993 0.404116 -0.311812
528.3803
528.3803
644.2716
644.2716
996.8095
996.8095
0.099993 0.519578 0.0
508.2621
540.1499
722.9463
779.627
900.1452
984.5739
0.099993 0.519578 0.062362
504.586
546.7932
710.8842
775.8672
910.3856
995.1199
0.099993 0.519578 0.124725
496.1495
565.7382
680.716
762.642
936.6764
1018.7982
0.099993 0.519578 0.187087
492.0379
592.8184
640.9881
739.043
971.1811
1039.1679
0.099993 0.519578 0.249449
504.6109
584.1488
636.0796
707.4604
1005.6285
1044.548
0.099993 0.519578 -0.311812
538.4436
538.4436
671.5171
671.5171
1032.2211
1032.2211
0.199986 0.346386 0.0
452.3253
519.4813
683.75
851.2793
868.1871
896.7386
0.199986 0.346386 0.062362
443.1143
526.0517
691.3436
801.9589
899.1602
910.2516
0.199986 0.346386 0.124725
429.4491
544.198
703.027
742.6155
909.362
948.3329
0.199986 0.346386 0.187087
433.4769
564.4503
689.2269
705.2927
929.2024
971.7484
0.199986 0.346386 0.249449
463.4964
556.4058
667.0512
696.5514
952.6726
978.973
0.199986 0.346386 -0.311812
511.2685
511.2685
680.122
680.122
971.3412
971.3412
0.199986 0.461847 0.0
535.8848
599.9326
742.8335
780.5789
869.527
958.3303
0.199986 0.461847 0.062362
520.7229
607.5277
733.7069
774.1042
890.2564
960.6483
0.199986 0.461847 0.124725
494.0311
617.3149
703.1195
780.5011
922.884
971.0008
0.199986 0.461847 0.187087
478.6732
600.6939
697.5169
781.3783
950.8539
987.0069
0.199986 0.461847 0.249449
486.1558
558.6048
721.1216
769.9193
974.9048
995.8795
0.199986 0.461847 -0.311812
515.8931
515.8931
748.5583
748.5583
991.4382
991.4382
0.199986 0.577309 0.0
583.6694
626.792
729.3804
773.2296
866.7475
977.5792
0.199986 0.577309 0.062362
561.6208
645.1571
694.6563
799.3591
877.5767
979.392
0.199986 0.577309 0.124725
528.1877
644.6561
674.1157
819.8155
905.5509
987.4988
0.199986 0.577309 0.187087
504.2388
596.3304
706.4017
817.5478
940.71
999.7455
0.199986 0.577309 0.249449
500.1149
552.6477
740.6816
799.7509
973.38
1005.0831
0.199986 0.577309 -0.311812
518.1122
518.1122
773.0224
773.0224
996.3124
996.3124
0.299979 0.519578 0.0
609.1522
700.4764
712.3031
785.1905
832.9248
967.4341
0.299979 0.519578 0.062362
589.1274
666.1408
728.8926
804.044
853.7516
961.9261
0.299979 0.519578 0.124725
550.6823
617.4008
747.6121
838.9621
893.704
949.9725
0.299979 0.519578 0.187087
519.2742
571.8847
773.506
860.8752
929.5816
944.4157
0.299979 0.519578 0.249449
506.1357
535.8957
804.5751
855.9975
952.2293
952.4948
0.299979 0.519578 -0.311812
512.784
512.784
834.2055
834.2055
958.9926
958.9926
P	=	12000.04	V	=	63.69697	E	=	-653.91917564
0.0 0.0 0.0
-0.0
-0.0
0.0
558.7127
558.7127
1128.2794
0.0 0.0 0.062329
87.0401
87.0401
196.9977
551.849
551.849
1112.901
0.0 0.0 0.124659
169.1416
169.1416
385.5734
530.4683
530.4683
1069.9538
0.0 0.0 0.186988
244.5488
244.5488
493.5833
493.5833
557.2565
1006.1475
0.0 0.0 0.249317
314.7911
314.7911
442.4943
442.4943
705.23
925.7302
0.0 0.0 -0.311646
381.3636
381.3636
381.3636
381.3636
827.0893
827.0893
0.0 0.11548 0.0
155.053
167.723
352.0325
582.8121
622.6626
1104.7481
0.0 0.11548 0.062329
187.9926
194.0331
389.1657
575.5075
615.3847
1091.5188
0.0 0.11548 0.124659
236.8197
259.3042
489.4
553.9248
593.1641
1054.7803
0.0 0.11548 0.186988
296.9382
321.9967
519.1665
555.4585
616.9576
1000.4563
0.0 0.11548 0.249317
359.0982
384.0724
473.2426
504.9972
740.2795
931.5874
0.0 0.11548 -0.311646
418.8919
418.8919
446.0836
446.0836
845.9698
845.9698
0.0 0.23096 0.0
296.7383
306.3015
636.7291
640.1663
762.9566
1039.4694
0.0 0.23096 0.062329
308.8748
317.4416
629.0629
657.4382
752.404
1034.1892
0.0 0.23096 0.124659
344.8938
349.0436
607.9588
696.9835
729.3338
1019.214
0.0 0.23096 0.186988
395.1709
400.5993
577.3983
665.9714
778.1877
995.2452
0.0 0.23096 0.249317
446.9546
467.6502
540.1444
605.8357
848.369
960.3595
0.0 0.23096 -0.311646
496.5418
496.5418
537.9939
537.9939
911.3933
911.3933
0.0 0.34644 0.0
402.183
417.4422
686.6684
824.7434
906.3465
947.4882
0.0 0.34644 0.062329
411.5395
419.5868
680.1337
826.5353
879.1999
974.6445
0.0 0.34644 0.124659
431.1543
438.1583
662.0779
789.8941
887.3271
1004.3168
0.0 0.34644 0.186988
461.6022
477.3472
635.7192
725.3718
926.5832
1019.9461
0.0 0.34644 0.249317
513.8146
521.9112
603.2629
654.0596
967.9558
1018.7519
0.0 0.34644 -0.311646
565.0961
565.0961
581.1983
581.1983
1000.6165
1000.6165
0.0 0.46192 0.0
456.5097
513.0914
714.3312
853.4951
919.2816
1000.5497
0.0 0.46192 0.062329
465.8017
512.0612
710.0779
830.5428
932.5629
1016.9035
0.0 0.46192 0.124659
490.8192
511.3505
696.8624
782.7096
961.9774
1048.0237
0.0 0.46192 0.186988
519.3789
525.5694
674.1091
724.299
999.0683
1071.4315
0.0 0.46192 0.249317
546.9187
564.8433
642.6001
659.7847
1035.7023
1077.1182
0.0 0.46192 -0.311646
596.648
596.648
604.988
604.988
1063.9006
1063.9006
0.0 -0.5774 0.0
474.0606
558.3714
721.8896
805.4602
948.5705
1030.5141
0.0 -0.5774 0.062329
483.3996
555.8794
718.879
793.2123
957.448
1044.0323
0.0 -0.5774 0.124659
507.8796
549.5363
708.1692
760.7868
982.509
1072.4062
0.0 -0.5774 0.186988
540.8308
546.9657
686.957
713.5196
1017.97
1095.0578
0.0 -0.5774 0.249317
561.7463
577.9655
655.2941
656.5397
1055.0496
1099.8187
0.0 -0.5774 -0.311646
600.8836
600.8836
617.2185
617.2185
1084.8916
1084.8916
0.100009 0.17322 0.0
260.7324
293.0687
540.7447
653.4622
711.474
1060.3115
0.100009 0.17322 0.062329
275.0528
304.379
558.7877
650.2902
702.3921
1051.9413
0.100009 0.17322 0.124659
314.8117
336.3825
585.1425
663.2184
675.3335
1028.8397
0.100009 0.17322 0.186988
371.284
382.8052
570.2755
631.8311
729.6011
994.2662
0.100009 0.17322 0.249317
433.7994
433.9928
538.0851
576.4577
812.2856
948.2181
0.100009 0.17322 -0.311646
472.2104
472.2104
523.6118
523.6118
887.7255
887.7255
0.100009 0.2887 0.0
377.8343
411.6122
652.6467
793.2373
840.6676
981.3327
0.100009 0.2887 0.062329
376.6599
421.4099
654.6581
791.0165
830.407
987.6306
0.100009 0.2887 0.124659
384.9585
447.8268
652.1494
759.5982
839.1925
997.4804
0.100009 0.2887 0.186988
416.3016
486.2446
637.2216
703.5508
876.9762
999.5139
0.100009 0.2887 0.249317
468.3272
524.6377
612.6546
645.6363
922.2157
988.1755
0.100009 0.2887 -0.311646
521.8224
521.8224
606.4315
606.4315
961.6886
961.6886
0.100009 0.40418 0.0
481.1568
487.1952
715.2671
884.403
886.2537
960.212
0.100009 0.40418 0.062329
469.0907
503.1899
712.477
841.325
912.3187
979.6206
0.100009 0.40418 0.124659
460.6483
529.4551
700.0694
789.1208
938.613
1011.8837
0.100009 0.40418 0.186988
468.3687
562.7119
672.5495
740.317
971.5718
1034.4607
0.100009 0.40418 0.249317
498.9171
582.8256
644.3996
700.1894
1004.5719
1040.5446
0.100009 0.40418 -0.311646
546.2449
546.2449
664.6878
664.6878
1029.5433
1029.5433
0.100009 0.51966 0.0
523.9301
557.1049
743.0375
806.5532
929.606
1017.7788
0.100009 0.51966 0.062329
520.3586
563.6716
731.3808
801.3974
939.9961
1028.5207
0.100009 0.51966 0.124659
511.8238
583.1125
701.1245
786.244
966.7066
1052.4648
0.100009 0.51966 0.186988
507.9169
611.166
660.557
761.5486
1002.0384
1072.9549
0.100009 0.51966 0.249317
521.2629
602.4694
655.8491
729.2023
1037.6485
1078.2145
0.100009 0.51966 -0.311646
555.9712
555.9712
692.3523
692.3523
1065.3015
1065.3015
0.200017 0.34644 0.0
469.2999
536.2436
704.2968
878.4236
898.0135
927.2462
0.200017 0.34644 0.062329
459.8364
542.272
711.422
828.2349
929.6183
940.3401
0.200017 0.34644 0.124659
445.7175
559.8112
722.4938
766.7696
939.9202
979.2779
0.200017 0.34644 0.186988
449.9052
580.7902
711.6907
725.1402
960.2673
1003.4617
0.200017 0.34644 0.249317
480.8342
574.2929
688.6664
717.5458
984.5111
1011.2784
0.200017 0.34644 -0.311646
529.4078
529.4078
701.7645
701.7645
1003.7234
1003.7234
0.200017 0.46192 0.0
555.0892
619.1708
765.6745
808.2912
898.1132
990.569
0.200017 0.46192 0.062329
538.9976
626.4625
756.8331
799.3553
919.6303
992.7949
0.200017 0.46192 0.124659
510.8432
635.6896
725.2414
803.6199
953.0552
1003.0388
0.200017 0.46192 0.186988
495.2508
618.9661
719.0419
804.3448
981.7905
1019.1803
0.200017 0.46192 0.249317
503.7684
576.9976
743.7959
793.5492
1006.7197
1028.3858
0.200017 0.46192 -0.311646
534.3119
534.3119
772.2874
772.2874
1023.9069
1023.9069
0.200017 0.5774 0.0
604.0973
647.1458
755.863
796.9511
895.6855
1010.2271
0.200017 0.5774 0.062329
580.619
665.7236
718.0336
824.5023
906.5043
1011.9149
0.200017 0.5774 0.124659
545.225
664.8429
694.8232
844.7854
934.6695
1019.8397
0.200017 0.5774 0.186988
520.7544
614.7184
728.0771
842.2813
970.6585
1032.1145
0.200017 0.5774 0.249317
517.6543
570.8879
763.9728
824.5744
1004.6543
1037.6377
0.200017 0.5774 -0.311646
536.4911
536.4911
797.5395
797.5395
1028.6181
1028.6181
0.300026 0.51966 0.0
631.8281
726.4429
735.6658
811.3772
860.6782
999.148
0.300026 0.51966 0.062329
610.1097
689.1087
752.6258
830.3068
882.0822
993.0576
0.300026 0.51966 0.124659
568.8149
636.9969
770.667
865.1438
922.6642
980.1226
0.300026 0.51966 0.186988
536.3865
589.7857
797.1618
887.1301
959.4272
974.5435
0.300026 0.51966 0.249317
524.3462
554.3038
829.8567
882.6592
983.2394
983.4827
0.300026 0.51966 -0.311646
531.8564
531.8564
860.748
860.748
990.5346
990.5346
P	=	13000.11	V	=	62.1846	E	=	-653.79072538
0.0 0.0 0.0
-0.0
-0.0
0.0
569.2637
569.2637
1160.4838
0.0 0.0 0.062299
92.1208
92.1208
204.2112
563.271
563.271
1145.221
0.0 0.0 0.124599
176.8981
176.8981
398.4581
543.3893
543.3893
1102.0417
0.0 0.0 0.186898
252.2932
252.2932
506.5756
506.5756
573.9899
1036.5973
0.0 0.0 0.249198
321.9731
321.9731
453.4481
453.4481
725.0272
952.9062
0.0 0.0 -0.311497
389.6745
389.6745
389.6745
389.6745
850.3465
850.3465
0.0 0.115495 0.0
162.3473
173.8095
363.5599
595.1616
636.8155
1136.7387
0.0 0.115495 0.062299
195.7342
203.7505
402.1376
588.5613
630.1189
1123.7643
0.0 0.115495 0.124599
246.6235
270.7078
505.9766
568.1474
608.8832
1087.1142
0.0 0.115495 0.186898
306.8226
332.9385
533.2875
571.0799
636.7266
1031.506
0.0 0.115495 0.249198
368.3871
394.5985
485.5
518.9173
762.4083
959.771
0.0 0.115495 -0.311497
428.9471
428.9471
457.741
457.741
870.818
870.818
0.0 0.230989 0.0
308.8821
316.7304
652.3728
660.7453
783.9942
1070.5911
0.0 0.230989 0.062299
323.0266
328.8503
645.1922
678.5169
773.5766
1065.8483
0.0 0.230989 0.124599
361.3529
361.9581
624.8268
718.6656
751.6441
1051.5743
0.0 0.230989 0.186898
408.365
416.6606
593.9616
686.3366
803.2659
1027.0712
0.0 0.230989 0.249198
459.7561
482.9569
555.1076
624.4549
875.0016
990.4043
0.0 0.230989 -0.311497
509.832
509.832
554.3597
554.3597
939.5109
939.5109
0.0 0.346484 0.0
414.4823
431.5589
704.1841
850.0502
933.6795
976.678
0.0 0.346484 0.062299
424.714
435.158
698.1498
851.5744
906.7797
1004.6834
0.0 0.346484 0.124599
448.8878
452.8279
680.8877
814.5743
915.4299
1035.6562
0.0 0.346484 0.186898
479.5322
492.5865
654.3479
748.6733
955.6032
1051.6895
0.0 0.346484 0.249198
531.0746
537.0578
620.481
674.7713
997.7671
1049.983
0.0 0.346484 -0.311497
580.7896
580.7896
599.3418
599.3418
1031.091
1031.091
0.0 0.461978 0.0
468.8883
527.8686
731.9222
879.9647
946.4751
1031.3967
0.0 0.461978 0.062299
479.1923
527.6736
728.3295
856.5214
960.4886
1048.2205
0.0 0.461978 0.124599
506.0367
528.2871
716.2528
807.5966
991.0534
1080.2239
0.0 0.461978 0.186898
536.4771
541.6914
693.6214
747.0764
1029.0615
1103.9347
0.0 0.461978 0.249198
563.4877
581.0468
660.8626
679.5755
1066.2966
1109.1178
0.0 0.461978 -0.311497
613.9267
613.9267
621.7715
621.7715
1095.1172
1095.1172
0.0 -0.577473 0.0
486.2024
573.4995
739.2034
830.4128
976.2654
1062.3148
0.0 -0.577473 0.062299
496.6538
571.5714
736.9409
817.9375
985.5965
1076.2822
0.0 -0.577473 0.124599
523.1705
566.0955
727.5526
784.5817
1011.6285
1105.3761
0.0 -0.577473 0.186898
557.1861
563.4763
706.6136
735.2373
1047.9178
1128.0763
0.0 -0.577473 0.249198
577.6566
594.4436
673.7761
675.3472
1085.571
1132.0666
0.0 -0.577473 -0.311497
617.3501
617.3501
634.2544
634.2544
1116.1363
1116.1363
0.100021 0.173242 0.0
271.9666
303.2608
556.8454
670.9338
730.077
1091.7788
0.100021 0.173242 0.062299
288.3377
315.4191
575.2769
668.608
721.3198
1083.8697
0.100021 0.173242 0.124599
330.1618
348.7133
601.5809
684.4536
694.7722
1061.3171
0.100021 0.173242 0.186898
385.9597
395.3694
586.3019
650.959
753.3477
1025.9977
0.100021 0.173242 0.249198
446.0459
447.6822
552.8703
593.9125
837.7115
977.8006
0.100021 0.173242 -0.311497
485.0157
485.0157
538.78
538.78
914.9324
914.9324
0.100021 0.288736 0.0
391.8914
424.8766
670.1528
817.2314
865.5878
1011.4915
0.100021 0.288736 0.062299
392.18
435.3076
672.4167
814.8614
856.0337
1018.4611
0.100021 0.288736 0.124599
402.5518
462.7456
670.5231
783.1184
866.2113
1029.3323
0.100021 0.288736 0.186898
433.6943
501.6364
655.7581
726.128
905.073
1031.385
0.100021 0.288736 0.249198
484.4868
540.1929
630.7379
665.8546
951.0909
1019.0208
0.100021 0.288736 -0.311497
537.725
537.725
624.4602
624.4602
991.365
991.365
0.100021 0.404231 0.0
496.5717
501.5918
733.9951
910.7858
914.1688
989.916
0.100021 0.404231 0.062299
484.8258
518.7818
731.5782
867.4923
940.7587
1009.9174
0.100021 0.404231 0.124599
477.8346
546.1754
720.0709
814.2259
968.1359
1043.3365
0.100021 0.404231 0.186898
485.7901
580.05
693.0483
763.4338
1001.7525
1066.3815
0.100021 0.404231 0.249198
515.6344
600.4844
663.875
721.0747
1035.0455
1072.0458
0.100021 0.404231 -0.311497
563.1988
563.1988
684.0468
684.0468
1060.3952
1060.3952
0.100021 0.519726 0.0
538.4557
573.4593
761.9553
832.1717
957.0095
1049.296
0.100021 0.519726 0.062299
535.6644
580.4545
751.1302
826.3524
968.0123
1060.4709
0.100021 0.519726 0.124599
528.3205
600.893
721.8778
810.1292
995.8806
1085.091
0.100021 0.519726 0.186898
524.6416
629.636
680.853
784.2299
1032.0419
1105.6064
0.100021 0.519726 0.249198
537.5243
620.677
674.9124
750.3082
1068.1069
1110.1395
0.100021 0.519726 -0.311497
572.5774
572.5774
712.0328
712.0328
1096.337
1096.337
0.200042 0.346484 0.0
485.4279
552.6745
723.8447
904.0068
926.6718
956.4423
0.200042 0.346484 0.062299
476.8156
558.807
731.253
853.9011
959.1985
969.6544
0.200042 0.346484 0.124599
464.0429
576.6678
742.9564
791.8012
970.2232
1010.2591
0.200042 0.346484 0.186898
468.2692
598.2424
735.343
746.1002
990.8414
1035.0421
0.200042 0.346484 0.249198
498.3277
592.4311
710.1007
738.5523
1014.8951
1042.3709
0.200042 0.346484 -0.311497
546.9363
546.9363
722.5702
722.5702
1034.1833
1034.1833
0.200042 0.461978 0.0
573.4245
637.57
787.2924
834.9892
924.6925
1021.3707
0.200042 0.461978 0.062299
557.3138
645.2147
779.5236
824.2772
947.7185
1023.9266
0.200042 0.461978 0.124599
529.3382
655.0364
748.4551
827.4378
982.9198
1034.6992
0.200042 0.461978 0.186898
513.6808
638.9021
741.3596
828.114
1012.3141
1050.8311
0.200042 0.461978 0.249198
521.8048
596.1597
766.0384
817.004
1037.1265
1059.4463
0.200042 0.461978 -0.311497
552.4764
552.4764
795.0942
795.0942
1054.3868
1054.3868
0.200042 0.577473 0.0
623.8143
666.239
781.26
819.3759
922.4745
1041.4053
0.200042 0.577473 0.062299
599.6946
685.7456
741.2451
848.9727
933.9936
1043.3852
0.200042 0.577473 0.124599
563.9207
686.6064
715.9685
870.0884
963.4622
1051.7455
0.200042 0.577473 0.186898
539.2008
635.1975
750.1161
867.4631
1000.3081
1063.8809
0.200042 0.577473 0.249198
535.8174
590.0719
786.6683
848.9685
1034.6579
1068.7189
0.200042 0.577473 -0.311497
554.7893
554.7893
820.9806
820.9806
1059.0054
1059.0054
0.300064 0.519726 0.0
653.6427
751.5281
757.5559
835.9679
886.5256
1029.6247
0.300064 0.519726 0.062299
631.1993
712.1437
775.6279
855.777
909.2968
1023.5231
0.300064 0.519726 0.124599
588.9589
658.6498
794.1303
891.7672
951.6185
1010.4888
0.300064 0.519726 0.186898
556.0334
610.3753
821.2559
913.9986
989.2238
1004.6672
0.300064 0.519726 0.249198
543.7661
574.1426
854.529
908.9462
1013.1511
1013.3291
0.300064 0.519726 -0.311497
551.2982
551.2982
886.1473
886.1473
1020.3301
1020.3301
P	=	13999.75	V	=	60.79739	E	=	-653.66347042
0.0 0.0 0.0
-0.0
-0.0
-0.0
578.3652
578.3652
1190.9934
0.0 0.0 0.062273
98.1111
98.1111
212.5978
573.7271
573.7271
1176.1798
0.0 0.0 0.124547
185.8282
185.8282
412.8711
556.3007
556.3007
1133.4302
0.0 0.0 0.18682
260.6652
260.6652
520.1021
520.1021
591.6484
1066.7161
0.0 0.0 0.249093
329.0692
329.0692
464.7276
464.7276
744.8192
979.6552
0.0 0.0 -0.311367
397.8353
397.8353
397.8353
397.8353
873.1045
873.1045
0.0 0.115505 0.0
169.9975
178.9638
374.4289
605.3917
649.2203
1167.1439
0.0 0.115505 0.062273
203.8617
214.86
415.2648
600.2863
643.7744
1154.823
0.0 0.115505 0.124547
258.1365
284.3259
523.647
582.5365
624.807
1119.007
0.0 0.115505 0.18682
317.7733
345.4424
548.2052
587.5028
657.2216
1062.4026
0.0 0.115505 0.249093
377.2722
405.3351
497.85
533.1675
784.2699
987.4618
0.0 0.115505 -0.311367
438.2051
438.2051
469.1299
469.1299
894.9034
894.9034
0.0 0.23101 0.0
321.474
325.731
665.06
679.9218
803.1524
1100.4047
0.0 0.23101 0.062273
338.6838
340.2992
659.558
699.0001
793.7029
1096.7143
0.0 0.23101 0.124547
376.7961
380.6555
642.1261
740.8467
774.4986
1084.0095
0.0 0.23101 0.18682
422.8242
434.9665
611.6713
707.8055
828.6779
1059.0492
0.0 0.23101 0.249093
471.6724
498.6407
569.8552
643.3896
900.8534
1019.7751
0.0 0.23101 -0.311367
521.5087
521.5087
570.2684
570.2684
966.3346
966.3346
0.0 0.346515 0.0
425.4779
445.9605
719.1476
873.4678
959.5248
1004.8393
0.0 0.346515 0.062273
437.6556
451.8826
714.6404
875.5218
933.5574
1034.0541
0.0 0.346515 0.124547
468.7084
468.959
700.0326
839.8293
943.3866
1067.0655
0.0 0.346515 0.18682
499.2666
508.5823
673.8569
773.0462
984.3739
1083.3998
0.0 0.346515 0.249093
548.3742
551.2686
637.3584
695.6566
1026.4434
1080.2529
0.0 0.346515 -0.311367
594.9503
594.9503
616.7828
616.7828
1059.9844
1059.9844
0.0 0.46202 0.0
480.4368
542.8394
748.2559
905.4532
972.0972
1060.8715
0.0 0.46202 0.062273
492.1837
544.0808
745.7315
882.0852
987.2076
1078.339
0.0 0.46202 0.124547
521.4649
546.8059
735.5161
833.0331
1019.4545
1111.5574
0.0 0.46202 0.18682
554.6836
557.9081
713.1995
770.5677
1058.3583
1135.506
0.0 0.46202 0.249093
579.7722
596.695
678.7163
699.2311
1095.6493
1139.7237
0.0 0.46202 -0.311367
630.3287
630.3287
637.7211
637.7211
1124.7156
1124.7156
0.0 -0.577525 0.0
497.7714
588.9341
755.9696
854.237
1002.6215
1092.7755
0.0 -0.577525 0.062273
509.4617
588.0432
754.51
842.1145
1012.5549
1107.1807
0.0 -0.577525 0.124547
538.2213
584.0163
746.5313
808.6997
1039.8149
1137.0458
0.0 -0.577525 0.18682
573.35
580.8779
725.8793
757.3494
1076.9136
1159.7407
0.0 -0.577525 0.249093
593.2212
610.6087
691.8186
693.7976
1114.7889
1162.7536
0.0 -0.577525 -0.311367
632.8856
632.8856
650.8554
650.8554
1145.7793
1145.7793
0.10003 0.173257 0.0
283.6529
312.1255
571.3159
686.1932
746.5947
1121.8599
0.10003 0.173257 0.062273
303.1442
326.5112
591.0072
685.796
739.0477
1114.9034
0.10003 0.173257 0.124547
348.3893
362.866
618.5954
706.3239
714.6732
1093.7537
0.10003 0.173257 0.18682
402.9149
409.1523
603.3754
671.2131
777.5914
1057.8323
0.10003 0.173257 0.249093
457.5306
461.7083
567.5114
611.7061
862.501
1006.7741
0.10003 0.173257 -0.311367
496.541
496.541
553.3334
553.3334
940.9795
940.9795
0.10003 0.288762 0.0
406.2905
436.7665
685.2547
839.0781
888.6932
1040.5763
0.10003 0.288762 0.062273
408.9539
449.099
688.9199
837.52
880.7004
1048.7435
0.10003 0.288762 0.124547
422.8882
479.1464
689.5992
807.3539
893.4076
1061.511
0.10003 0.288762 0.18682
453.3368
517.9438
675.4274
750.0189
933.2557
1063.5284
0.10003 0.288762 0.249093
500.6954
554.8062
648.5875
686.2319
978.9382
1049.0819
0.10003 0.288762 -0.311367
552.2988
552.2988
641.3374
641.3374
1019.4933
1019.4933
0.10003 0.404267 0.0
512.1494
514.8844
751.069
935.2841
941.2387
1018.0065
0.10003 0.404267 0.062273
501.1474
534.4411
749.831
893.1695
968.1899
1039.1927
0.10003 0.404267 0.124547
497.0158
563.8124
740.6501
840.1722
997.4362
1074.6021
0.10003 0.404267 0.18682
504.8334
597.8013
714.5628
787.4895
1031.6304
1098.0458
0.10003 0.404267 0.249093
532.0591
617.3345
683.2271
741.6569
1064.3079
1102.3948
0.10003 0.404267 -0.311367
578.8763
578.8763
702.2493
702.2493
1089.5302
1089.5302
0.10003 0.519772 0.0
552.1503
590.0252
780.1298
856.8963
982.9255
1079.3386
0.10003 0.519772 0.062273
550.9328
597.7541
770.5401
851.0245
994.9501
1091.163
0.10003 0.519772 0.124547
546.0771
619.445
743.218
834.4304
1024.6044
1116.8326
0.10003 0.519772 0.18682
542.428
648.4325
701.9365
807.1636
1061.5244
1137.2901
0.10003 0.519772 0.249093
553.3078
638.4327
693.6254
770.942
1097.3166
1140.5578
0.10003 0.519772 -0.311367
587.9376
587.9376
730.8376
730.8376
1125.6199
1125.6199
0.20006 0.346515 0.0
501.7003
567.9474
741.7155
927.5897
954.5796
983.636
0.20006 0.346515 0.062273
494.8804
575.0441
750.4722
879.0178
987.4894
998.4284
0.20006 0.346515 0.124547
485.017
594.4088
764.3901
818.0979
1000.371
1041.7169
0.20006 0.346515 0.18682
488.8309
616.186
760.5857
768.0359
1021.2139
1066.9969
0.20006 0.346515 0.249093
515.6166
609.807
731.2641
759.0729
1043.9845
1072.5839
0.20006 0.346515 -0.311367
562.9552
562.9552
741.926
741.926
1062.8524
1062.8524
0.20006 0.46202 0.0
591.8146
654.8706
807.8015
861.1624
949.5581
1050.4544
0.20006 0.46202 0.062273
576.5752
663.7213
802.0845
849.2534
975.0209
1053.9281
0.20006 0.46202 0.124547
550.322
675.3944
773.2181
852.2078
1013.1218
1066.2117
0.20006 0.46202 0.18682
534.1183
660.0439
764.7603
852.5978
1042.9338
1082.3098
0.20006 0.46202 0.249093
539.315
614.837
787.6401
839.8222
1066.3158
1089.2242
0.20006 0.46202 -0.311367
568.784
568.784
816.4322
816.4322
1082.8994
1082.8994
0.20006 0.577525 0.0
643.6649
684.1779
806.1228
840.9053
947.7058
1071.0926
0.20006 0.577525 0.062273
619.667
705.5815
764.8114
873.2757
960.7213
1073.86
0.20006 0.577525 0.124547
585.0322
710.335
738.0752
896.1282
992.6562
1083.4352
0.20006 0.577525 0.18682
559.5746
657.4542
772.8814
893.1417
1030.1547
1095.2669
0.20006 0.577525 0.249093
553.3526
608.8042
808.7014
872.6212
1063.4888
1098.3361
0.20006 0.577525 -0.311367
571.0892
571.0892
842.963
842.963
1087.3601
1087.3601
0.300091 0.519772 0.0
675.4389
776.3814
778.1439
859.1862
910.845
1058.7766
0.300091 0.519772 0.062273
653.3206
735.7826
798.4351
880.9235
936.0165
1053.3112
0.300091 0.519772 0.124547
611.9763
682.8633
818.7219
919.4454
981.4157
1041.1769
0.300091 0.519772 0.18682
578.0801
633.2457
846.2388
941.5524
1019.5617
1034.9076
0.300091 0.519772 0.249093
562.5608
593.4574
878.364
934.25
1041.8655
1041.9514
0.300091 0.519772 -0.311367
568.3754
568.3754
909.6752
909.6752
1048.0084
1048.0084
P	=	15000.26	V	=	59.51721	E	=	-653.53732593
0.0 0.0 0.0
-0.0
-0.0
0.0
587.5103
587.5103
1220.3109
0.0 0.0 0.06225
103.5212
103.5212
220.8296
584.1174
584.1174
1206.0871
0.0 0.0 0.1245
194.0035
194.0035
427.1513
568.9123
568.9123
1164.1411
0.0 0.0 0.18675
268.4868
268.4868
533.1955
533.1955
609.3759
1096.6386
0.0 0.0 0.249
335.8572
335.8572
475.6466
475.6466
764.9142
1006.6184
0.0 0.0 -0.31125
405.7463
405.7463
405.7463
405.7463
896.253
896.253
0.0 0.115514 0.0
178.0417
183.8869
384.7727
616.2204
661.6149
1196.7297
0.0 0.115514 0.06225
211.7631
225.9658
428.0365
612.4507
657.3427
1185.1055
0.0 0.115514 0.1245
269.4605
297.8883
541.1392
596.9843
640.4684
1150.2766
0.0 0.115514 0.18675
328.6662
358.1903
562.8475
603.5539
677.7112
1092.963
0.0 0.115514 0.249
386.0804
416.3529
509.8403
547.163
806.3088
1015.1523
0.0 0.115514 -0.31125
447.2215
447.2215
480.5506
480.5506
919.1928
919.1928
0.0 0.231028 0.0
334.2209
334.5206
679.104
698.2706
821.9604
1130.0973
0.0 0.231028 0.06225
351.5416
354.6541
675.0353
718.8669
813.5514
1127.33
0.0 0.231028 0.1245
391.9309
400.3645
659.9105
762.6261
797.2331
1115.961
0.0 0.231028 0.18675
437.7992
454.1786
629.217
729.0841
853.841
1090.4463
0.0 0.231028 0.249
483.8135
515.3049
584.1463
662.3514
926.3592
1048.6212
0.0 0.231028 -0.31125
532.9171
532.9171
586.6863
586.6863
992.7236
992.7236
0.0 0.346542 0.0
435.8324
460.4455
735.2384
895.9905
984.4181
1033.1012
0.0 0.346542 0.06225
450.2716
468.7663
732.0208
898.9418
959.6667
1063.1852
0.0 0.346542 0.1245
484.8152
489.4557
719.4658
864.9655
970.8405
1098.0423
0.0 0.346542 0.18675
519.7579
525.0347
693.0352
797.4012
1012.5725
1114.4456
0.0 0.346542 0.249
565.635
566.3796
653.6432
716.605
1054.2302
1109.5849
0.0 0.346542 -0.31125
608.7476
608.7476
634.553
634.553
1087.8118
1087.8118
0.0 0.462056 0.0
491.4781
557.5084
764.6544
930.4868
996.5496
1089.1332
0.0 0.462056 0.06225
504.7766
560.4407
763.0927
907.2545
1013.0825
1107.4593
0.0 0.462056 0.1245
536.6811
565.737
754.4827
858.3081
1047.4222
1142.1154
0.0 0.462056 0.18675
573.3759
573.9837
732.242
793.9157
1087.1315
1166.1507
0.0 0.462056 0.249
596.0494
612.0806
695.9644
718.4927
1123.9566
1169.0275
0.0 0.462056 -0.31125
646.2708
646.2708
653.1907
653.1907
1152.8906
1152.8906
0.0 -0.57757 0.0
508.9657
604.0813
772.1749
877.0387
1027.6303
1121.9918
0.0 -0.57757 0.06225
521.8658
604.5397
771.5029
865.5114
1038.5627
1136.9689
0.0 -0.57757 0.1245
552.8059
602.4914
764.9033
832.4302
1067.6554
1167.7544
0.0 -0.57757 0.18675
589.011
598.7912
744.5322
779.0762
1105.5365
1190.2645
0.0 -0.57757 0.249
608.5167
626.2622
709.2835
711.4709
1143.0027
1191.9318
0.0 -0.57757 -0.31125
647.5152
647.5152
666.9229
666.9229
1173.8818
1173.8818
0.100038 0.173271 0.0
295.8444
320.8064
585.3628
702.228
762.8653
1151.6559
0.100038 0.173271 0.06225
318.2186
337.6217
606.6403
703.4975
756.516
1145.5645
0.100038 0.173271 0.1245
366.9198
377.335
635.9906
728.0594
734.2639
1125.6725
0.100038 0.173271 0.18675
420.6877
423.3021
620.4351
691.1557
801.6533
1089.1485
0.100038 0.173271 0.249
469.0687
476.5717
581.8701
629.4323
887.1352
1035.3859
0.100038 0.173271 -0.31125
507.9186
507.9186
568.1651
568.1651
966.8188
966.8188
0.100038 0.288785 0.0
421.0342
448.3145
701.4152
860.1942
911.1706
1069.8294
0.100038 0.288785 0.06225
425.9617
462.9432
706.4696
859.5783
904.8504
1078.9887
0.100038 0.288785 0.1245
443.5931
496.1067
709.3458
831.3152
920.1746
1093.3097
0.100038 0.288785 0.18675
473.7436
534.8535
695.1178
773.8141
961.0042
1095.0387
0.100038 0.288785 0.249
517.6319
569.5256
666.1837
706.6848
1006.1562
1078.3689
0.100038 0.288785 -0.31125
566.9163
566.9163
658.272
658.272
1046.8373
1046.8373
0.100038 0.404299 0.0
527.6951
527.7313
768.7756
958.6879
968.3011
1045.045
0.100038 0.404299 0.06225
517.3736
550.1125
768.6257
918.551
994.9626
1067.735
0.100038 0.404299 0.1245
516.4941
581.7413
761.4111
866.2162
1026.1934
1105.3508
0.100038 0.404299 0.18675
524.2967
615.8044
735.8737
811.6818
1060.8886
1129.0412
0.100038 0.404299 0.249
548.604
633.9278
702.4368
761.9818
1092.5816
1131.716
0.100038 0.404299 -0.31125
594.2888
594.2888
720.0994
720.0994
1117.454
1117.454
0.100038 0.519813 0.0
565.4782
606.4382
797.9454
880.9661
1007.5838
1108.2634
0.100038 0.519813 0.06225
565.9873
615.0851
789.5529
875.3687
1020.987
1120.8974
0.100038 0.519813 0.1245
564.0557
638.0907
764.2462
858.7736
1052.9445
1147.8228
0.100038 0.519813 0.18675
560.4664
667.0756
722.7643
830.0231
1090.5673
1168.0731
0.100038 0.519813 0.249
568.7365
655.575
711.9242
791.1698
1125.516
1169.6696
0.100038 0.519813 -0.31125
602.4941
602.4941
749.0715
749.0715
1153.466
1153.466
0.200076 0.346542 0.0
518.1588
582.9086
760.4301
950.0712
982.7032
1009.9544
0.200076 0.346542 0.06225
513.2134
591.2961
770.5849
903.6635
1015.0251
1026.9635
0.200076 0.346542 0.1245
506.418
612.6646
786.5568
844.2883
1029.9697
1072.8157
0.200076 0.346542 0.18675
509.8407
634.5833
785.8743
790.1732
1051.0196
1098.3776
0.200076 0.346542 0.249
533.0913
627.13
752.3524
779.2434
1072.2346
1101.9196
0.200076 0.346542 -0.31125
578.8689
578.8689
760.8168
760.8168
1090.5024
1090.5024
0.200076 0.462056 0.0
610.2643
671.7491
828.3555
887.2618
973.1843
1078.7077
0.200076 0.462056 0.06225
596.1115
682.0461
824.6337
874.442
1001.5197
1083.2634
0.200076 0.462056 0.1245
571.8932
695.9735
798.1479
877.4633
1042.9093
1097.3081
0.200076 0.462056 0.18675
554.9185
681.4952
788.145
877.2954
1073.0594
1113.2785
0.200076 0.462056 0.249
556.5004
633.3489
808.7344
862.29
1094.5643
1118.0626
0.200076 0.462056 -0.31125
584.464
584.464
837.072
837.072
1110.2154
1110.2154
0.200076 0.57757 0.0
663.6329
701.6899
830.6098
861.8041
971.8326
1100.0424
0.200076 0.57757 0.06225
639.9727
725.1855
788.1664
897.4076
986.6741
1103.7657
0.200076 0.57757 0.1245
606.9134
734.4254
760.0473
922.4186
1021.5392
1114.7925
0.200076 0.57757 0.18675
580.4764
680.0648
795.29
919.0321
1059.5959
1126.1705
0.200076 0.57757 0.249
570.504
627.175
830.0098
895.9793
1091.3617
1126.959
0.200076 0.57757 -0.31125
586.5045
586.5045
864.191
864.191
1114.4334
1114.4334
0.300114 0.519813 0.0
697.3369
798.0611
801.2022
881.8044
934.0837
1087.5353
0.300114 0.519813 0.06225
675.849
759.4877
820.9203
905.7993
962.0753
1082.9162
0.300114 0.519813 0.1245
635.8852
707.8689
843.0395
947.2945
1011.0573
1071.9656
0.300114 0.519813 0.18675
600.7609
656.87
870.7053
969.2546
1049.6812
1065.0068
0.300114 0.519813 0.249
581.0153
612.6209
901.27
959.1583
1069.6125
1069.987
0.300114 0.519813 -0.31125
584.6176
584.6176
932.2599
932.2599
1074.5786
1074.5786

weight
   0.0000000   0.0000000   0.0000000   0.0020000   
   0.0000000   0.0000000   0.1000000   0.0040000   
   0.0000000   0.0000000   0.2000000   0.0040000   
   0.0000000   0.0000000   0.3000000   0.0040000   
   0.0000000   0.0000000   0.4000000   0.0040000   
   0.0000000   0.0000000  -0.5000000   0.0020000   
   0.0000000   0.1000000   0.0000000   0.0120000   
   0.0000000   0.1000000   0.1000000   0.0240000   
   0.0000000   0.1000000   0.2000000   0.0240000   
   0.0000000   0.1000000   0.3000000   0.0240000   
   0.0000000   0.1000000   0.4000000   0.0240000   
   0.0000000   0.1000000  -0.5000000   0.0120000   
   0.0000000   0.2000000   0.0000000   0.0120000   
   0.0000000   0.2000000   0.1000000   0.0240000   
   0.0000000   0.2000000   0.2000000   0.0240000   
   0.0000000   0.2000000   0.3000000   0.0240000   
   0.0000000   0.2000000   0.4000000   0.0240000   
   0.0000000   0.2000000  -0.5000000   0.0120000   
   0.0000000   0.3000000   0.0000000   0.0120000   
   0.0000000   0.3000000   0.1000000   0.0240000   
   0.0000000   0.3000000   0.2000000   0.0240000   
   0.0000000   0.3000000   0.3000000   0.0240000   
   0.0000000   0.3000000   0.4000000   0.0240000   
   0.0000000   0.3000000  -0.5000000   0.0120000   
   0.0000000   0.4000000   0.0000000   0.0120000   
   0.0000000   0.4000000   0.1000000   0.0240000   
   0.0000000   0.4000000   0.2000000   0.0240000   
   0.0000000   0.4000000   0.3000000   0.0240000   
   0.0000000   0.4000000   0.4000000   0.0240000   
   0.0000000   0.4000000  -0.5000000   0.0120000   
   0.0000000  -0.5000000   0.0000000   0.0060000   
   0.0000000  -0.5000000   0.1000000   0.0120000   
   0.0000000  -0.5000000   0.2000000   0.0120000   
   0.0000000  -0.5000000   0.3000000   0.0120000   
   0.0000000  -0.5000000   0.4000000   0.0120000   
   0.0000000  -0.5000000  -0.5000000   0.0060000   
   0.1000000   0.1000000   0.0000000   0.0120000   
   0.1000000   0.1000000   0.1000000   0.0240000   
   0.1000000   0.1000000   0.2000000   0.0240000   
   0.1000000   0.1000000   0.3000000   0.0240000   
   0.1000000   0.1000000   0.4000000   0.0240000   
   0.1000000   0.1000000  -0.5000000   0.0120000   
   0.1000000   0.2000000   0.0000000   0.0240000   
   0.1000000   0.2000000   0.1000000   0.0480000   
   0.1000000   0.2000000   0.2000000   0.0480000   
   0.1000000   0.2000000   0.3000000   0.0480000   
   0.1000000   0.2000000   0.4000000   0.0480000   
   0.1000000   0.2000000  -0.5000000   0.0240000   
   0.1000000   0.3000000   0.0000000   0.0240000   
   0.1000000   0.3000000   0.1000000   0.0480000   
   0.1000000   0.3000000   0.2000000   0.0480000   
   0.1000000   0.3000000   0.3000000   0.0480000   
   0.1000000   0.3000000   0.4000000   0.0480000   
   0.1000000   0.3000000  -0.5000000   0.0240000   
   0.1000000   0.4000000   0.0000000   0.0240000   
   0.1000000   0.4000000   0.1000000   0.0480000   
   0.1000000   0.4000000   0.2000000   0.0480000   
   0.1000000   0.4000000   0.3000000   0.0480000   
   0.1000000   0.4000000   0.4000000   0.0480000   
   0.1000000   0.4000000  -0.5000000   0.0240000   
   0.2000000   0.2000000   0.0000000   0.0120000   
   0.2000000   0.2000000   0.1000000   0.0240000   
   0.2000000   0.2000000   0.2000000   0.0240000   
   0.2000000   0.2000000   0.3000000   0.0240000   
   0.2000000   0.2000000   0.4000000   0.0240000   
   0.2000000   0.2000000  -0.5000000   0.0120000   
   0.2000000   0.3000000   0.0000000   0.0240000   
   0.2000000   0.3000000   0.1000000   0.0480000   
   0.2000000   0.3000000   0.2000000   0.0480000   
   0.2000000   0.3000000   0.3000000   0.0480000   
   0.2000000   0.3000000   0.4000000   0.0480000   
   0.2000000   0.3000000  -0.5000000   0.0240000   
   0.2000000   0.4000000   0.0000000   0.0120000   
   0.2000000   0.4000000   0.1000000   0.0240000   
   0.2000000   0.4000000   0.2000000   0.0240000   
   0.2000000   0.4000000   0.3000000   0.0240000   
   0.2000000   0.4000000   0.4000000   0.0240000   
   0.2000000   0.4000000  -0.5000000   0.0120000   
   0.3000000   0.3000000   0.0000000   0.0120000   
   0.3000000   0.3000000   0.1000000   0.0240000   
   0.3000000   0.3000000   0.2000000   0.0240000   
   0.3000000   0.3000000   0.3000000   0.0240000   
   0.3000000   0.3000000   0.4000000   0.0240000   
   0.3000000   0.3000000  -0.5000000   0.0120000   