Number of volumes (nv), q-vectors (nq), normal mode (np), formula units(nm)
23 84 6 1

P	=	0.13	V	=	155.13812	E	=	-655.65114743
0.0 0.0 0.0
-0.0
-0.0
0.0
142.5433
142.5433
274.6133
0.0 0.0 0.061994
21.1968
21.1968
49.9531
140.6405
140.6405
272.5017
0.0 0.0 0.123988
42.2101
42.2101
97.4409
135.0525
135.0525
265.7611
0.0 0.0 0.185983
62.6357
62.6357
126.0671
126.0671
140.5686
253.4894
0.0 0.0 0.247977
81.8378
81.8378
113.9983
113.9983
178.2074
234.9168
0.0 0.0 -0.309971
99.1364
99.1364
99.1364
99.1364
209.7731
209.7731
0.0 0.115946 0.0
39.7622
44.3711
86.0853
151.0061
163.4614
271.1119
0.0 0.115946 0.061994
49.6495
54.0177
94.1339
149.3386
161.7166
269.009
0.0 0.115946 0.123988
62.4109
74.6394
118.8386
144.291
156.6024
262.4847
0.0 0.115946 0.185983
78.1926
92.0456
135.8535
148.3393
151.8704
251.0377
0.0 0.115946 0.247977
94.5517
108.5121
124.2903
137.3653
183.9245
234.1897
0.0 0.115946 -0.309971
110.2342
110.2342
123.8881
123.8881
211.7377
211.7377
0.0 0.231892 0.0
78.9091
81.3998
157.9052
168.7103
203.7819
261.1581
0.0 0.231892 0.061994
84.8322
85.0476
162.0379
167.4372
201.7446
259.6201
0.0 0.231892 0.123988
94.3721
99.6702
163.3291
173.5043
195.7512
255.1038
0.0 0.231892 0.185983
106.4957
118.5107
155.9475
185.4528
190.3194
247.7318
0.0 0.231892 0.247977
119.6284
138.0888
145.4741
172.6587
207.6333
237.404
0.0 0.231892 -0.309971
132.9341
132.9341
156.5268
156.5268
223.9304
223.9304
0.0 0.347838 0.0
106.1324
115.3513
184.1101
207.0861
236.394
246.4538
0.0 0.347838 0.061994
109.4353
116.3276
183.0661
210.1479
229.7764
249.9997
0.0 0.347838 0.123988
117.9478
120.7746
179.6102
215.1815
220.1153
253.5464
0.0 0.347838 0.185983
129.0403
130.8158
173.225
200.8286
229.1752
254.5124
0.0 0.347838 0.247977
140.9464
146.1265
164.0056
183.1645
239.2607
252.5208
0.0 0.347838 -0.309971
152.8658
152.8658
164.381
164.381
247.3696
247.3696
0.0 0.463784 0.0
118.4006
144.8948
192.6669
230.3926
233.438
253.4055
0.0 0.463784 0.061994
121.5884
143.094
191.6827
224.3278
236.5248
256.6167
0.0 0.463784 0.123988
129.974
140.2186
188.5316
211.4465
243.5416
261.6787
0.0 0.463784 0.185983
141.029
141.1315
182.8758
195.4806
251.7122
265.0876
0.0 0.463784 0.247977
148.3392
153.0454
174.7081
178.1969
258.8807
265.8942
0.0 0.463784 -0.309971
161.5899
161.5899
164.5149
164.5149
263.7983
263.7983
0.0 -0.57973 0.0
121.7437
158.1389
195.1646
221.719
241.4094
258.0377
0.0 -0.57973 0.061994
124.8938
155.3693
194.1813
216.9559
244.2794
260.433
0.0 -0.57973 0.123988
133.2819
149.7893
191.1113
205.3393
251.0508
264.9896
0.0 -0.57973 0.185983
144.5971
146.6378
185.7309
190.2695
258.6059
268.6385
0.0 -0.57973 0.247977
149.7069
156.6888
174.1343
177.9804
264.8731
270.0729
0.0 -0.57973 -0.309971
159.5922
159.5922
168.1137
168.1137
268.827
268.827
0.100412 0.173919 0.0
68.6534
80.3482
133.2326
170.152
190.1393
264.3773
0.100412 0.173919 0.061994
75.6025
83.7786
138.2313
169.157
188.2993
262.5508
0.100412 0.173919 0.123988
91.5036
92.6659
150.7374
167.3577
182.8853
257.0947
0.100412 0.173919 0.185983
104.3809
109.6111
154.0731
174.1777
177.8269
248.0082
0.100412 0.173919 0.247977
116.9261
125.8506
147.1838
162.6544
198.6249
235.1795
0.100412 0.173919 -0.309971
128.0323
128.0323
149.901
149.901
218.5415
218.5415
0.100412 0.289865 0.0
103.4306
113.2435
172.4729
199.5442
221.7201
251.9771
0.100412 0.289865 0.061994
104.388
116.622
174.6504
200.3505
218.4448
252.0872
0.100412 0.289865 0.123988
109.5451
124.6922
177.2855
203.9062
210.3027
251.6075
0.100412 0.289865 0.185983
120.3991
134.8308
174.8518
196.032
214.9608
249.3093
0.100412 0.289865 0.247977
134.7135
144.9361
168.6256
181.5421
226.3187
244.4311
0.100412 0.289865 -0.309971
146.7336
146.7336
168.7846
168.7846
236.6568
236.6568
0.100412 0.405811 0.0
131.6406
135.7927
194.1508
224.1452
236.1424
244.766
0.100412 0.405811 0.061994
130.0646
138.4645
194.0523
224.5128
230.2812
250.189
0.100412 0.405811 0.123988
128.1001
145.4251
191.8025
214.4993
234.0405
255.9397
0.100412 0.405811 0.185983
130.4143
154.46
184.8889
201.599
242.101
258.9148
0.100412 0.405811 0.247977
139.0953
161.339
175.4333
189.9106
249.8497
258.7979
0.100412 0.405811 -0.309971
152.3322
152.3322
179.6113
179.6113
255.6656
255.6656
0.100412 0.521757 0.0
138.9385
158.7428
202.1456
221.8711
237.5218
255.086
0.100412 0.521757 0.061994
140.0217
157.3631
200.1821
218.3037
240.5799
257.537
0.100412 0.521757 0.123988
140.1913
158.1412
193.2714
211.065
247.5585
262.1972
0.100412 0.521757 0.185983
138.7983
164.8668
181.2617
203.2599
255.188
265.7792
0.100412 0.521757 0.247977
141.7648
164.8547
175.8274
194.7245
261.4423
266.9534
0.100412 0.521757 -0.309971
151.243
151.243
185.2935
185.2935
265.4677
265.4677
0.200824 0.347838 0.0
132.7292
150.3797
189.6585
227.4434
232.8685
238.1841
0.200824 0.347838 0.061994
130.1369
152.4782
193.0165
223.4024
228.0304
245.0902
0.200824 0.347838 0.123988
126.5068
157.7694
198.4633
209.7771
230.5727
251.0532
0.200824 0.347838 0.185983
127.7722
163.4472
195.4488
199.6306
236.1248
253.6314
0.200824 0.347838 0.247977
136.1381
162.3626
186.9866
195.8992
243.0815
252.8145
0.200824 0.347838 -0.309971
149.721
149.721
190.0629
190.0629
249.0626
249.0626
0.200824 0.463784 0.0
159.7163
169.7406
209.3881
222.1161
233.9843
246.0196
0.200824 0.463784 0.061994
154.3809
172.7924
209.1875
217.8275
237.7183
248.6681
0.200824 0.463784 0.123988
145.2138
177.5555
199.8263
218.5121
242.6676
254.2418
0.200824 0.463784 0.185983
138.5696
175.3093
193.759
217.3918
248.5233
258.279
0.200824 0.463784 0.247977
138.592
161.1655
198.8144
212.661
253.922
259.3064
0.200824 0.463784 -0.309971
146.9183
146.9183
205.9708
205.9708
257.6679
257.6679
0.200824 0.57973 0.0
173.7966
174.5601
211.9338
219.1579
233.206
251.3875
0.200824 0.57973 0.061994
165.681
180.7408
203.0554
224.0148
236.8259
253.0795
0.200824 0.57973 0.123988
155.2062
187.5678
189.0303
226.0139
244.6368
257.1415
0.200824 0.57973 0.185983
145.7168
173.1569
195.2145
223.4803
252.2336
260.7439
0.200824 0.57973 0.247977
141.3216
157.3252
203.1464
217.9923
257.7096
262.0327
0.200824 0.57973 -0.309971
145.3621
145.3621
210.9083
210.9083
260.9326
260.9326
0.301236 0.521757 0.0
182.3185
195.8469
205.533
222.2441
233.1149
246.2816
0.301236 0.521757 0.061994
176.4321
194.9199
201.7261
227.041
238.4819
246.1705
0.301236 0.521757 0.123988
164.3141
183.4903
204.6349
234.1406
246.7223
247.1408
0.301236 0.521757 0.185983
151.8386
168.0582
210.9011
234.8522
250.2328
253.2516
0.301236 0.521757 0.247977
143.4388
153.1501
217.7363
230.5938
253.9411
255.8758
0.301236 0.521757 -0.309971
143.5871
143.5871
224.4808
224.4808
255.8699
255.8699
P	=	500.01	V	=	128.70553	E	=	-655.61369395
0.0 0.0 0.0
-0.0
0.0
0.0
193.5829
193.5829
395.7354
0.0 0.0 0.062043
29.5901
29.5901
70.7677
191.0644
191.0644
392.4308
0.0 0.0 0.124087
58.0194
58.0194
138.3204
183.4458
183.4458
382.0873
0.0 0.0 0.18613
84.7028
84.7028
170.7582
170.7582
200.0605
363.726
0.0 0.0 0.248174
109.6293
109.6293
153.5171
153.5171
254.2623
336.4584
0.0 0.0 -0.310217
132.7683
132.7683
132.7706
132.7706
299.8312
299.9995
0.0 0.115712 0.0
54.7376
58.5298
123.4601
204.6957
224.4507
390.0594
0.0 0.115712 0.062043
65.9508
73.445
135.6282
202.3891
222.027
386.9856
0.0 0.115712 0.124087
83.6686
101.27
170.8641
195.383
214.806
377.443
0.0 0.115712 0.18613
105.1667
124.5972
183.6743
202.8081
217.5829
360.6303
0.0 0.115712 0.248174
127.2395
146.3571
167.7187
187.0502
263.3317
335.8451
0.0 0.115712 -0.310217
148.443
148.544
167.3579
168.1682
302.9783
303.4551
0.0 0.231424 0.0
107.7402
108.2674
226.663
228.7486
285.1514
374.0333
0.0 0.231424 0.062043
113.1675
115.5831
226.8174
232.8546
282.0224
372.1515
0.0 0.231424 0.124087
126.0281
135.2048
220.9306
249.3494
273.0699
366.3824
0.0 0.231424 0.18613
143.2616
159.864
210.9701
256.7665
274.5483
356.0864
0.0 0.231424 0.248174
162.0034
185.9219
197.2183
238.1792
299.5028
340.7906
0.0 0.231424 -0.310217
180.393
180.5622
211.9742
215.1125
320.892
322.8941
0.0 0.347135 0.0
142.9215
156.7767
251.1842
298.0473
336.9166
350.4805
0.0 0.347135 0.062043
147.3544
158.2628
249.5741
302.2114
326.0642
357.1694
0.0 0.347135 0.124087
159.0252
164.4299
244.5628
302.4123
317.6838
363.6777
0.0 0.347135 0.18613
174.7242
177.8898
235.8494
279.9706
331.2477
365.8603
0.0 0.347135 0.248174
191.7688
198.7156
223.5696
253.6415
345.6593
363.3497
0.0 0.347135 -0.310217
208.4162
208.5472
224.4929
226.3059
356.0995
357.2044
0.0 0.462847 0.0
161.4384
197.4509
265.0337
324.7137
337.2581
366.3928
0.0 0.462847 0.062043
165.8401
194.8672
263.6295
315.7113
342.0002
370.8051
0.0 0.462847 0.124087
177.3488
190.7804
259.106
296.2249
352.6262
378.119
0.0 0.462847 0.18613
192.3298
192.6051
250.9662
271.9161
364.7464
383.4447
0.0 0.462847 0.248174
203.4139
208.9492
239.2707
245.8727
375.05
385.2173
0.0 0.462847 -0.310217
221.1455
223.0309
224.8281
224.9147
381.8136
382.7172
0.0 -0.578559 0.0
166.9138
216.3459
269.4955
310.7323
349.4137
375.235
0.0 -0.578559 0.062043
171.3325
212.1929
268.156
303.7532
353.6979
378.4482
0.0 -0.578559 0.124087
182.8572
203.949
263.7829
286.4834
363.8483
384.8125
0.0 -0.578559 0.18613
198.0303
199.6804
255.7912
264.1966
375.2336
390.1076
0.0 -0.578559 0.248174
204.7311
214.1973
240.6998
244.2158
384.6529
392.3507
0.0 -0.578559 -0.310217
217.6167
221.3923
229.9156
229.9821
389.6779
391.4697
0.100209 0.173568 0.0
93.8942
107.3066
188.4334
234.4777
264.1019
379.2067
0.100209 0.173568 0.062043
102.5652
111.9605
195.2878
233.7157
261.4072
376.7928
0.100209 0.173568 0.124087
122.827
124.4203
208.9775
235.9089
253.3745
369.3716
0.100209 0.173568 0.18613
140.6483
147.2299
208.8422
240.2902
256.2177
356.538
0.100209 0.173568 0.248174
158.2046
169.4682
200.1382
223.0383
285.5918
337.9969
0.100209 0.173568 -0.310217
172.6979
173.6553
204.0356
204.892
313.7932
314.1071
0.100209 0.289279 0.0
140.5041
152.6248
237.3526
284.5416
313.2059
359.3432
0.100209 0.289279 0.062043
141.3635
157.4191
239.5266
286.4728
308.0808
360.0257
0.100209 0.289279 0.124087
147.5903
168.7195
241.7473
289.1151
299.3207
360.3857
0.100209 0.289279 0.18613
161.8816
182.7696
238.5038
272.3856
310.7739
357.9044
0.100209 0.289279 0.248174
181.7503
196.2672
230.7107
251.105
326.9891
351.3455
0.100209 0.289279 -0.310217
197.5212
199.7535
230.9528
233.2604
340.4931
341.5534
0.100209 0.404991 0.0
179.4909
184.3954
266.8995
323.193
333.9931
351.5427
0.100209 0.404991 0.062043
176.3948
188.8565
266.6417
318.4991
330.728
358.9145
0.100209 0.404991 0.124087
173.0379
198.8364
263.5441
299.9596
338.6804
367.6258
0.100209 0.404991 0.18613
176.0504
211.4799
254.0066
279.862
350.4472
372.7124
0.100209 0.404991 0.248174
188.1321
219.7544
241.4841
263.2302
361.525
373.5289
0.100209 0.404991 -0.310217
205.6283
206.5851
248.2944
249.1441
369.5724
369.7421
0.100209 0.520703 0.0
191.1331
216.7056
279.9267
311.0558
342.9995
369.9563
0.100209 0.520703 0.062043
192.1347
214.7492
277.1161
305.451
347.5076
373.1298
0.100209 0.520703 0.124087
190.2118
217.0078
266.808
294.2288
357.9207
379.3779
0.100209 0.520703 0.18613
187.0278
227.4207
248.55
282.8781
369.4543
384.6812
0.100209 0.520703 0.248174
191.4543
223.9808
243.5671
270.8757
378.8673
387.0551
0.100209 0.520703 -0.310217
203.5083
205.6603
257.1239
257.8224
384.3166
385.7848
0.200419 0.347135 0.0
179.8236
205.2671
262.4806
328.1663
331.1328
337.3081
0.200419 0.347135 0.062043
176.1839
208.0061
266.706
314.9468
329.3023
349.0931
0.200419 0.347135 0.124087
170.8788
215.1281
273.6357
292.7849
333.6642
358.826
0.200419 0.347135 0.18613
172.1477
222.7746
270.4905
275.5858
342.0385
363.8968
0.200419 0.347135 0.248174
183.1289
219.7933
259.0521
271.3846
351.982
364.259
0.200419 0.347135 -0.310217
200.6938
202.4552
263.2042
264.4159
359.9189
360.1797
0.200419 0.462847 0.0
217.2859
234.8374
291.8768
311.5784
335.7018
355.1398
0.200419 0.462847 0.062043
209.3926
238.7708
291.0016
304.606
341.6752
357.9491
0.200419 0.462847 0.124087
195.4259
244.6676
276.0408
304.6794
349.991
364.7495
0.200419 0.462847 0.18613
185.7179
237.7682
269.008
303.7146
358.9429
371.0287
0.200419 0.462847 0.248174
186.0216
216.1048
277.7698
297.9193
367.1116
374.0879
0.200419 0.462847 -0.310217
196.4787
197.2804
288.5751
288.7368
372.3447
372.9411
0.200419 0.578559 0.0
237.718
242.9631
295.274
306.6572
334.4905
363.7138
0.200419 0.578559 0.062043
226.0998
250.7393
281.0156
313.8004
339.5372
365.5832
0.200419 0.578559 0.124087
208.9593
258.0013
260.8565
317.0852
350.8132
370.3058
0.200419 0.578559 0.18613
194.3839
233.2389
272.6509
314.1971
362.6403
375.3147
0.200419 0.578559 0.248174
188.524
210.5921
285.1645
307.0439
371.8344
378.0932
0.200419 0.578559 -0.310217
193.5026
195.2268
296.8625
297.1687
376.4967
377.7048
0.300628 0.520703 0.0
249.8593
275.2449
285.2881
313.598
330.8119
355.1163
0.300628 0.520703 0.062043
240.2821
270.1183
281.6554
320.1301
338.2591
354.5396
0.300628 0.520703 0.124087
220.6767
248.5436
287.2616
330.3441
350.6823
354.3486
0.300628 0.520703 0.18613
201.9005
224.1297
296.9786
332.7825
358.5809
360.7552
0.300628 0.520703 0.248174
190.7135
203.3632
308.0556
327.5124
364.7595
366.6915
0.300628 0.520703 -0.310217
190.9016
191.3584
318.6701
318.7174
367.9214
368.0307
P	=	1000.2	V	=	116.0472	E	=	-655.55095859
0.0 0.0 0.0
-0.0
-0.0
-0.0
228.2296
228.2296
472.7918
0.0 0.0 0.062119
35.1006
35.1006
84.1376
225.2724
225.2724
468.7707
0.0 0.0 0.124238
68.8416
68.8416
164.7379
216.3487
216.3487
456.3019
0.0 0.0 0.186356
100.4908
100.4908
201.5312
201.5312
238.7328
434.3972
0.0 0.0 0.248475
129.9545
129.9545
181.415
181.415
303.8092
402.0036
0.0 0.0 -0.310594
157.1489
157.1489
157.1565
157.1565
358.424
358.5236
0.0 0.115659 0.0
65.2534
68.5788
147.6221
241.0586
264.9302
465.8284
0.0 0.115659 0.062119
77.5177
86.1864
162.5617
238.339
262.012
462.1179
0.0 0.115659 0.124238
98.706
118.2984
204.9264
230.1161
253.3738
450.6676
0.0 0.115659 0.186356
124.2865
146.1235
216.43
239.0127
260.6394
430.6972
0.0 0.115659 0.248475
150.3971
172.1746
197.8106
220.2953
315.1692
401.407
0.0 0.115659 -0.310594
175.316
175.3819
197.1111
197.8559
362.5207
362.9305
0.0 0.231318 0.0
127.1633
127.7087
269.0887
270.8035
337.7225
446.0637
0.0 0.231318 0.062119
132.9986
136.2907
266.7759
278.2892
333.8597
443.9329
0.0 0.231318 0.124238
148.2385
158.6082
259.8201
297.9511
323.1004
437.2805
0.0 0.231318 0.186356
168.6483
187.503
248.1674
302.4404
328.8344
425.4169
0.0 0.231318 0.248475
190.7896
218.4818
232.1476
279.7237
358.5159
407.7698
0.0 0.231318 -0.310594
212.4453
212.6504
249.3773
251.891
384.5807
386.258
0.0 0.346978 0.0
168.2913
184.7271
295.7898
355.7776
400.8664
416.8457
0.0 0.346978 0.062119
173.3944
186.2658
293.799
360.4767
387.6248
425.4904
0.0 0.346978 0.124238
186.9132
193.3429
287.7546
357.735
380.0787
433.9818
0.0 0.346978 0.186356
205.3297
209.236
277.4722
330.4898
396.2826
437.1745
0.0 0.346978 0.248475
225.4884
233.9969
263.1248
298.7476
413.4432
434.5924
0.0 0.346978 -0.310594
245.2174
245.4604
264.657
266.0047
426.2319
427.1033
0.0 0.462637 0.0
190.4307
231.8313
312.808
384.89
402.4643
437.5999
0.0 0.462637 0.062119
195.3323
229.0038
310.9937
373.9884
408.4036
442.9409
0.0 0.462637 0.124238
208.3884
224.5655
305.3572
350.5861
421.453
452.0615
0.0 0.462637 0.186356
226.1719
226.6263
295.5823
321.6554
436.2626
458.7432
0.0 0.462637 0.248475
239.7664
245.6059
281.7854
290.8069
448.8867
460.9226
0.0 0.462637 -0.310594
261.7241
262.8472
264.5949
264.7668
457.161
457.8699
0.0 -0.578296 0.0
197.011
253.7989
318.4455
367.6657
416.9657
448.8305
0.0 -0.578296 0.062119
201.8769
249.0986
316.6747
359.4769
422.2584
452.7578
0.0 -0.578296 0.124238
214.8615
239.8845
311.1249
339.127
434.8076
460.6101
0.0 -0.578296 0.186356
232.5332
235.4219
301.421
312.7638
448.8477
467.1701
0.0 -0.578296 0.248475
241.8683
251.8311
284.8365
287.6718
460.44
469.8903
0.0 -0.578296 -0.310594
258.4781
260.7314
270.6351
270.7897
467.004
468.3822
0.100164 0.173489 0.0
111.4825
125.7767
224.143
277.4789
312.2392
452.4567
0.100164 0.173489 0.062119
121.1003
131.3244
232.1595
276.9432
308.8944
449.6093
0.100164 0.173489 0.124238
144.1635
146.0426
246.9441
281.5515
298.9937
440.8993
0.100164 0.173489 0.186356
165.543
172.2954
245.7697
283.0447
307.2151
425.9062
0.100164 0.173489 0.248475
186.3702
198.6052
235.5007
262.2489
342.3305
404.2261
0.100164 0.173489 -0.310594
203.414
204.241
239.8126
240.4756
375.8661
376.0145
0.100164 0.289148 0.0
165.8612
179.2501
279.5545
339.6608
371.7738
427.8381
0.100164 0.289148 0.062119
166.4996
184.8802
282.0091
341.9647
365.5784
428.9789
0.100164 0.289148 0.124238
173.2999
198.1325
284.4618
342.36
357.7071
430.0223
0.100164 0.289148 0.186356
189.7343
214.8247
280.704
321.1841
372.1699
427.6646
0.100164 0.289148 0.248475
212.9767
230.8627
271.8273
295.4352
391.4013
420.334
0.100164 0.289148 -0.310594
232.1907
234.0286
272.4419
274.2344
407.7352
408.5953
0.100164 0.404807 0.0
211.3291
216.6996
314.3849
385.798
396.3313
419.2462
0.100164 0.404807 0.062119
207.2988
222.2017
314.0727
377.6916
395.2029
427.9821
0.100164 0.404807 0.124238
203.1354
233.9274
310.3834
355.0397
405.2195
438.9133
0.100164 0.404807 0.186356
206.5369
248.7877
299.2266
330.9885
419.3189
445.469
0.100164 0.404807 0.248475
220.676
258.2955
285.0826
310.9717
432.5777
446.6759
0.100164 0.404807 -0.310594
241.6511
242.4987
293.3366
294.1002
442.1604
442.2626
0.100164 0.520466 0.0
225.3754
254.2446
330.565
367.9727
409.0091
442.3045
0.100164 0.520466 0.062119
226.0533
252.5036
326.9873
361.5074
414.6176
446.1422
0.100164 0.520466 0.124238
223.1625
255.9015
314.3616
348.5443
427.4886
453.8485
0.100164 0.520466 0.186356
219.5236
268.1676
292.9212
335.0356
441.6881
460.3703
0.100164 0.520466 0.248475
224.8766
263.7851
287.7612
320.5546
453.2981
463.1351
0.100164 0.520466 -0.310594
240.1408
241.4125
304.1618
304.6307
460.1947
461.3003
0.200328 0.346978 0.0
211.4061
241.331
309.0341
393.043
393.1963
400.4024
0.200328 0.346978 0.062119
206.902
244.5329
314.1235
373.1978
394.5023
415.4009
0.200328 0.346978 0.124238
200.2592
252.8526
322.4802
346.4609
399.8605
427.9172
0.200328 0.346978 0.186356
201.4872
261.6849
319.8865
325.0251
409.7625
434.6458
0.200328 0.346978 0.248475
214.427
257.9387
306.2318
320.2947
421.361
435.487
0.200328 0.346978 -0.310594
235.6146
237.0833
311.03
312.0676
430.6195
430.8346
0.200328 0.462637 0.0
254.9642
276.8734
344.2294
368.4689
399.5407
424.5846
0.200328 0.462637 0.062119
245.6519
281.4932
343.294
360.3163
407.382
427.6254
0.200328 0.462637 0.124238
229.1711
288.161
326.2199
360.5547
418.2775
435.5418
0.200328 0.462637 0.186356
217.6914
279.597
318.5268
359.6914
429.1932
443.2072
0.200328 0.462637 0.248475
217.9958
254.1957
328.8265
352.8628
438.9267
446.9143
0.200328 0.462637 -0.310594
230.9095
231.4398
341.6928
341.8758
445.1287
445.5478
0.200328 0.578296 0.0
278.948
286.8331
348.4292
362.3283
397.7221
434.8095
0.200328 0.578296 0.062119
265.242
296.2135
331.1746
371.5697
403.9905
437.0012
0.200328 0.578296 0.124238
245.0261
303.8772
308.6164
376.2601
418.006
442.617
0.200328 0.578296 0.186356
228.038
274.6485
322.839
373.0835
432.6146
448.5856
0.200328 0.578296 0.248475
221.3143
247.7857
337.8694
364.4175
443.8902
451.7433
0.200328 0.578296 -0.310594
227.8432
228.9606
352.044
352.3484
449.9298
450.7926
0.300491 0.520466 0.0
293.3905
325.8868
336.119
370.6325
391.7811
424.6637
0.300491 0.520466 0.062119
282.0627
318.2017
333.6011
378.8573
401.1166
423.9701
0.300491 0.520466 0.124238
259.0426
292.4873
340.8863
391.9682
416.8316
423.5079
0.300491 0.520466 0.186356
237.0487
263.784
352.6223
395.7964
427.8684
429.526
0.300491 0.520466 0.248475
223.9012
239.1622
365.912
389.5948
434.8411
436.8874
0.300491 0.520466 -0.310594
224.313
224.6749
378.7172
378.8688
438.4668
438.5668
P	=	1500.36	V	=	107.75833	E	=	-655.4813029
0.0 0.0 0.0
-0.0
-0.0
0.0
256.3742
256.3742
532.7128
0.0 0.0 0.062178
39.2941
39.2941
94.4566
253.0236
253.0236
528.1353
0.0 0.0 0.124356
77.2558
77.2558
185.1202
242.9797
242.9797
514.0012
0.0 0.0 0.186535
113.061
113.061
226.4358
226.4358
268.5714
489.2909
0.0 0.0 0.248713
146.4014
146.4014
204.0593
204.0593
342.0737
452.8253
0.0 0.0 -0.310891
176.9689
176.9689
177.0033
177.0033
403.7019
403.8579
0.0 0.115623 0.0
72.9617
76.733
166.6132
270.4348
297.285
524.6764
0.0 0.115623 0.062178
86.8099
95.7263
183.6747
267.352
293.9649
520.4942
0.0 0.115623 0.124356
110.6621
131.2324
231.5417
258.0997
284.1184
507.6328
0.0 0.115623 0.186535
139.5406
162.8321
242.8192
267.7736
294.0932
485.2541
0.0 0.115623 0.248713
169.0009
192.5581
222.1016
246.5772
355.3368
452.4437
0.0 0.115623 -0.310891
196.9835
197.0602
220.7689
221.2127
408.7964
409.0643
0.0 0.231245 0.0
142.2736
142.7447
301.4069
305.3331
378.963
501.8107
0.0 0.231245 0.062178
148.7544
152.1814
298.8098
313.8213
374.5258
499.5371
0.0 0.231245 0.124356
165.8295
176.5547
290.9731
335.9649
362.3063
492.442
0.0 0.231245 0.186535
188.8222
208.6275
277.9036
337.9751
371.3113
479.6283
0.0 0.231245 0.248713
213.7838
243.4873
259.9909
311.7724
404.5508
460.2996
0.0 0.231245 -0.310891
238.0898
238.1792
278.3008
280.1074
434.5314
435.5856
0.0 0.346868 0.0
188.3024
206.2828
331.3308
400.5935
450.5729
467.99
0.0 0.346868 0.062178
193.8809
208.0767
329.0608
405.6916
435.2863
478.4142
0.0 0.346868 0.124356
208.8688
215.8982
322.1711
400.4417
428.5952
488.6559
0.0 0.346868 0.186535
229.5209
233.4724
310.5451
369.3583
446.9724
492.8009
0.0 0.346868 0.248713
252.2644
261.0269
294.4116
333.4306
466.2503
490.2474
0.0 0.346868 -0.310891
274.4892
274.568
295.3536
296.5823
480.9903
481.5288
0.0 0.46249 0.0
213.101
258.579
350.7375
431.2013
452.7593
492.6672
0.0 0.46249 0.062178
218.4171
255.5006
348.5918
418.8491
459.713
498.7003
0.0 0.46249 0.124356
232.7571
250.7972
342.0399
392.3659
474.7273
509.2273
0.0 0.46249 0.186535
252.6106
253.2602
330.8888
359.854
491.6557
517.0405
0.0 0.46249 0.248713
267.9023
274.556
315.3155
325.3705
506.0919
519.6458
0.0 0.46249 -0.310891
292.9469
293.5997
296.0562
296.1081
515.5583
516.1925
0.0 -0.578113 0.0
220.4775
282.9126
357.2523
411.5422
468.9505
505.629
0.0 -0.578113 0.062178
225.731
277.7368
355.1361
402.39
475.0386
510.0831
0.0 -0.578113 0.124356
239.9353
267.6824
348.6331
379.6086
489.4925
519.0631
0.0 -0.578113 0.186535
259.6298
263.0533
337.521
350.0925
505.6835
526.6421
0.0 -0.578113 0.248713
270.5927
281.4304
318.8456
321.9778
519.0486
529.8314
0.0 -0.578113 -0.310891
289.7821
291.4073
302.7938
302.854
526.7856
527.9466
0.100132 0.173434 0.0
124.6282
140.4655
252.3828
311.6324
350.2229
509.2076
0.100132 0.173434 0.062178
135.0643
146.6856
261.3202
311.2348
346.3278
506.1104
0.100132 0.173434 0.124356
160.4389
163.1579
277.0854
317.5077
334.8568
496.5821
0.100132 0.173434 0.186535
185.2576
191.6273
275.1629
316.5229
347.107
480.0419
0.100132 0.173434 0.248713
208.7713
221.3719
263.4179
292.7998
386.6336
455.9386
0.100132 0.173434 -0.310891
227.9646
228.5711
267.6898
267.9685
424.3052
424.341
0.100132 0.289056 0.0
185.2915
200.1959
312.9947
382.7221
417.4848
480.669
0.100132 0.289056 0.062178
185.9869
206.4118
315.7249
385.2106
410.4203
482.2972
0.100132 0.289056 0.124356
193.3613
221.1473
318.392
383.5518
403.3467
484.1587
0.100132 0.289056 0.186535
211.3937
239.966
314.0964
358.8639
420.1011
482.1369
0.100132 0.289056 0.248713
237.2026
258.123
304.1057
329.5461
441.6984
474.3245
0.100132 0.289056 -0.310891
259.4541
260.8564
304.665
305.8489
460.3723
460.9111
0.100132 0.404679 0.0
236.1658
241.804
351.8977
434.2192
444.237
471.7555
0.100132 0.404679 0.062178
231.3779
248.1949
351.5426
423.2145
445.0821
481.4915
0.100132 0.404679 0.124356
226.6721
261.3011
347.3147
397.3565
456.7879
494.1497
0.100132 0.404679 0.186535
230.3862
277.9485
334.6239
370.4394
472.7713
501.9441
0.100132 0.404679 0.248713
246.0127
288.4074
319.0566
348.06
487.7875
503.5744
0.100132 0.404679 -0.310891
269.6996
270.3639
328.575
329.0664
498.5845
498.7156
0.100132 0.520302 0.0
251.9643
283.4241
370.4643
411.7309
459.8282
498.183
0.100132 0.520302 0.062178
252.3718
281.7615
366.2035
404.6739
466.3207
502.4816
0.100132 0.520302 0.124356
248.6907
286.0839
351.4797
390.5366
481.1492
511.2578
0.100132 0.520302 0.186535
244.7632
299.9207
327.2663
375.6177
497.4939
518.7873
0.100132 0.520302 0.248713
250.9353
294.595
322.2821
359.3574
510.8931
522.0198
0.100132 0.520302 -0.310891
268.4509
269.36
340.9044
341.303
518.9313
519.8573
0.200264 0.346868 0.0
235.9355
269.3874
345.5223
441.3325
443.5104
448.8346
0.200264 0.346868 0.062178
230.838
272.9224
351.3269
418.041
445.1549
466.6253
0.200264 0.346868 0.124356
223.3081
282.1292
360.889
387.6052
451.1843
481.421
0.200264 0.346868 0.186535
224.5804
291.8619
357.7026
363.8996
462.3194
489.5923
0.200264 0.346868 0.248713
238.9333
287.4297
342.6638
358.6282
475.3629
490.9606
0.200264 0.346868 -0.310891
262.7216
263.9199
348.4242
349.0968
485.7851
485.8742
0.200264 0.46249 0.0
284.2503
309.4144
384.9395
412.0354
448.7448
478.4286
0.200264 0.46249 0.062178
273.7453
314.5472
383.7739
403.1392
457.966
481.5788
0.200264 0.46249 0.124356
255.3238
321.6864
364.6151
403.9557
470.8912
490.1766
0.200264 0.46249 0.186535
242.6445
311.5207
356.7155
403.3339
483.4539
498.9658
0.200264 0.46249 0.248713
243.0889
283.3776
368.524
395.7531
494.6008
503.398
0.200264 0.46249 -0.310891
257.6669
258.031
383.1692
383.3012
501.6456
501.9943
0.200264 0.578113 0.0
310.8598
320.7365
389.1897
405.5692
446.3287
489.7968
0.200264 0.578113 0.062178
295.3984
331.3497
369.6164
416.3226
453.5151
492.132
0.200264 0.578113 0.124356
272.678
338.8205
345.4782
422.1417
469.655
498.2727
0.200264 0.578113 0.186535
253.9541
306.1718
361.6753
418.8673
486.5754
505.0213
0.200264 0.578113 0.248713
246.8602
276.4102
378.8711
409.1676
499.6891
508.7102
0.200264 0.578113 -0.310891
254.5529
255.3367
395.1485
395.3917
506.833
507.5317
0.300396 0.520302 0.0
326.9839
365.0961
375.0542
414.3764
438.5714
478.721
0.300396 0.520302 0.062178
314.1538
354.9102
373.6795
423.9447
449.3081
477.8342
0.300396 0.520302 0.124356
288.3241
325.6927
382.2074
439.458
467.5268
476.9323
0.300396 0.520302 0.186535
264.0069
293.7484
395.5856
444.6688
481.3129
482.4306
0.300396 0.520302 0.248713
249.7576
266.6622
410.8254
437.94
489.1344
491.2278
0.300396 0.520302 -0.310891
250.4743
250.6813
425.5793
425.6682
493.2674
493.3425
P	=	2000.32	V	=	101.64955	E	=	-655.40905894
0.0 0.0 0.0
-0.0
-0.0
0.0
280.1006
280.1006
583.7901
0.0 0.0 0.062212
42.9457
42.9457
103.3994
276.4147
276.4147
578.7345
0.0 0.0 0.124423
84.4344
84.4344
202.5852
265.3871
265.3871
563.1222
0.0 0.0 0.186635
123.5531
123.5531
247.2751
247.2751
293.8248
535.8453
0.0 0.0 0.248847
159.9499
159.9499
222.8384
222.8384
374.207
495.6726
0.0 0.0 -0.311058
193.3044
193.3044
193.3159
193.3159
441.7679
441.8313
0.0 0.1156 0.0
79.8112
83.7449
182.5778
295.2165
324.3899
574.8162
0.0 0.1156 0.062212
94.7632
104.1546
201.4893
291.8163
320.7232
570.2123
0.0 0.1156 0.124423
120.818
142.4578
254.0405
281.6538
309.8642
556.0591
0.0 0.1156 0.186635
152.3402
176.852
264.9265
291.8391
322.4113
531.4605
0.0 0.1156 0.248847
184.4707
209.3222
242.3098
268.57
389.2631
495.464
0.0 0.1156 -0.311058
214.9577
215.0276
240.2079
240.7553
447.6972
447.9566
0.0 0.231199 0.0
155.3544
155.7313
328.6852
334.4432
413.3834
549.2259
0.0 0.231199 0.062212
162.4018
165.8337
325.8094
343.7637
408.4657
546.8044
0.0 0.231199 0.124423
180.9417
192.054
317.1932
367.7945
395.1563
539.2172
0.0 0.231199 0.186635
205.9224
226.6171
302.8967
367.6963
407.1545
525.4304
0.0 0.231199 0.248847
233.0623
264.3071
283.3724
338.8403
443.6082
504.5038
0.0 0.231199 -0.311058
259.4782
259.6646
302.1878
304.1599
476.4577
477.5385
0.0 0.346799 0.0
205.704
224.3809
361.3563
438.4077
492.3114
511.2986
0.0 0.346799 0.062212
211.6835
226.3732
358.8255
443.6591
475.5335
523.1362
0.0 0.346799 0.124423
227.8089
235.0078
351.1943
436.1882
469.574
534.837
0.0 0.346799 0.186635
250.1558
254.1407
338.4274
401.9902
489.7595
539.758
0.0 0.346799 0.248847
274.8734
284.0103
320.8166
362.6843
510.9824
537.1938
0.0 0.346799 -0.311058
299.0524
299.2207
321.313
322.4938
527.1553
527.7433
0.0 0.462398 0.0
232.8339
280.7276
382.8446
470.0929
495.1846
539.3159
0.0 0.462398 0.062212
238.4523
277.545
380.4199
456.5797
502.9298
545.9331
0.0 0.462398 0.124423
253.759
272.8498
373.0709
427.6122
519.5745
557.6264
0.0 0.462398 0.186635
275.2041
275.8904
360.7316
392.081
538.4072
566.3978
0.0 0.462398 0.248847
291.9784
299.1143
343.6601
354.4418
554.5335
569.3717
0.0 0.462398 -0.311058
318.9908
320.0821
322.5943
322.6795
565.0995
565.5553
0.0 -0.577998 0.0
240.8983
306.9995
390.1391
448.1543
512.7953
553.9328
0.0 -0.577998 0.062212
246.4342
301.5906
387.716
438.3055
519.5118
558.7844
0.0 -0.577998 0.124423
261.5522
291.1304
380.3707
413.6718
535.5463
568.6735
0.0 -0.577998 0.186635
282.8086
286.5233
368.0337
381.625
553.6275
577.1216
0.0 -0.577998 0.248847
294.9596
306.5867
347.622
350.9691
568.632
580.7104
0.0 -0.577998 -0.311058
315.6978
317.9576
329.9177
330.0925
577.5185
578.4179
0.100112 0.173399 0.0
136.0822
153.031
276.2186
340.4592
381.8928
557.5122
0.100112 0.173399 0.062212
147.2383
159.816
285.8824
340.1917
377.5517
554.1472
0.100112 0.173399 0.124423
174.4493
177.7842
302.4162
347.8781
364.7925
543.7959
0.100112 0.173399 0.186635
201.891
208.0756
299.859
344.4736
380.7802
525.8238
0.100112 0.173399 0.248847
227.516
240.464
286.8459
318.3089
424.0489
499.6127
0.100112 0.173399 -0.311058
248.2596
249.0317
290.779
291.2355
465.1363
465.225
0.100112 0.288999 0.0
201.7737
218.1755
341.1957
419.0986
455.714
525.5246
0.100112 0.288999 0.062212
202.553
224.8687
344.0872
421.6422
448.0393
527.5093
0.100112 0.288999 0.124423
210.4992
240.8489
346.8686
417.885
441.9708
529.9565
0.100112 0.288999 0.186635
229.9182
261.2774
342.1312
390.4046
460.5869
528.1362
0.100112 0.288999 0.248847
257.8156
280.9209
331.1635
358.3777
484.2748
519.8656
0.100112 0.288999 -0.311058
282.1594
283.5713
331.5372
332.8247
504.7355
505.2895
0.100112 0.404598 0.0
257.5498
262.7079
383.5222
475.0382
484.6914
516.1157
0.100112 0.404598 0.062212
251.831
270.1936
383.1012
461.4723
487.3356
526.671
0.100112 0.404598 0.124423
246.6784
284.586
378.3794
432.9861
500.3505
540.8001
0.100112 0.404598 0.186635
250.7552
302.6903
364.3454
403.693
517.9258
549.6604
0.100112 0.404598 0.248847
267.673
313.8183
347.5227
379.3983
534.4985
551.6608
0.100112 0.404598 -0.311058
293.3956
293.9311
358.1529
358.6853
546.3788
546.4158
0.100112 0.520198 0.0
274.8709
307.6278
404.1313
448.3919
502.6712
545.6732
0.100112 0.520198 0.062212
274.9875
306.2082
399.2481
440.9949
509.8569
550.3267
0.100112 0.520198 0.124423
270.5545
311.55
382.7299
426.0739
526.3092
559.9496
0.100112 0.520198 0.186635
266.3608
326.7805
356.1873
409.9439
544.5413
568.3012
0.100112 0.520198 0.248847
273.1648
320.5963
351.324
392.1079
559.5653
571.8998
0.100112 0.520198 -0.311058
292.0274
293.3285
371.851
372.2371
568.6696
569.3902
0.200224 0.346799 0.0
256.4445
293.32
376.2308
481.4788
486.4845
489.8527
0.200224 0.346799 0.062212
250.9879
297.1274
382.5451
455.6328
488.2557
509.7885
0.200224 0.346799 0.124423
242.9171
307.0433
393.0232
422.0877
494.7618
526.5395
0.200224 0.346799 0.186635
244.2806
317.435
389.4239
396.4417
506.826
535.9728
0.200224 0.346799 0.248847
259.7268
312.2777
373.3145
390.7907
521.0229
537.8209
0.200224 0.346799 -0.311058
285.5647
286.5653
379.6907
380.4135
532.3411
532.4508
0.200224 0.462398 0.0
308.6425
337.1258
419.1534
448.7756
490.0371
524.2491
0.200224 0.462398 0.062212
297.3505
342.6221
417.7322
439.2548
500.5554
527.4077
0.200224 0.462398 0.124423
277.5174
350.1278
396.9571
440.448
515.3172
536.4232
0.200224 0.462398 0.186635
263.8813
338.5469
388.8869
440.0043
529.2646
546.0728
0.200224 0.462398 0.248847
264.3671
307.9356
401.8895
431.7829
541.5519
551.0702
0.200224 0.462398 -0.311058
280.0244
280.5634
417.9784
418.1099
549.3131
549.5853
0.200224 0.577998 0.0
337.5047
349.5993
423.4198
441.8491
487.2753
536.5813
0.200224 0.577998 0.062212
320.8863
361.0812
401.933
453.9696
495.1969
538.993
0.200224 0.577998 0.124423
296.279
368.2999
376.647
460.8425
513.081
545.481
0.200224 0.577998 0.186635
276.084
332.7975
394.4337
457.4715
531.9342
552.7811
0.200224 0.577998 0.248847
268.453
300.4989
413.3491
446.8087
546.6107
556.7943
0.200224 0.577998 -0.311058
276.6506
277.7972
431.3545
431.5387
554.7469
555.3112
0.300336 0.520198 0.0
355.1177
398.3425
407.8311
451.1357
477.8187
524.726
0.300336 0.520198 0.062212
341.1928
385.9352
407.636
461.7796
489.757
523.6621
0.300336 0.520198 0.124423
313.2195
353.8805
417.2213
479.292
510.1248
522.2974
0.300336 0.520198 0.186635
286.9283
319.1722
431.9068
485.7602
526.4136
526.8687
0.300336 0.520198 0.248847
271.5134
289.8039
448.6658
478.6105
534.7037
536.7934
0.300336 0.520198 -0.311058
272.1939
272.5804
464.9892
465.0248
539.1823
539.2284
P	=	2500.21	V	=	96.83882	E	=	-655.33574908
0.0 0.0 0.0
-0.0
-0.0
0.0
301.2396
301.2396
628.7119
0.0 0.0 0.062239
46.1012
46.1012
111.2854
297.2532
297.2532
623.2224
0.0 0.0 0.124478
90.9718
90.9718
218.0838
285.4394
285.4394
606.3191
0.0 0.0 0.186717
133.6028
133.6028
266.2573
266.2573
316.3706
576.8951
0.0 0.0 0.248956
173.2288
173.2288
240.4899
240.4899
402.9554
533.6628
0.0 0.0 -0.311194
209.1418
209.1418
209.1418
209.1418
475.7129
475.7129
0.0 0.115576 0.0
85.9334
90.0778
196.7052
317.2229
348.3601
618.9166
0.0 0.115576 0.062239
101.8623
111.4844
217.3178
313.5754
344.3776
613.94
0.0 0.115576 0.124478
129.9701
152.1726
274.1429
302.7089
332.6707
598.6599
0.0 0.115576 0.186717
164.1828
189.5757
284.9363
313.3038
347.5974
572.196
0.0 0.115576 0.248956
199.0322
225.0365
260.9523
288.3396
419.329
533.5836
0.0 0.115576 -0.311194
231.8554
231.8554
258.3821
258.3821
482.3724
482.3724
0.0 0.231152 0.0
167.0843
167.4894
352.8175
360.133
443.5256
590.9186
0.0 0.231152 0.062239
174.5934
178.0743
349.7505
370.2335
438.2149
588.3918
0.0 0.231152 0.124478
194.4648
205.6638
340.522
396.0253
424.0792
580.3687
0.0 0.231152 0.186717
221.309
242.7
325.2084
393.7098
438.7703
565.8123
0.0 0.231152 0.248956
250.4802
283.4712
304.2991
362.019
477.645
543.742
0.0 0.231152 -0.311194
278.859
278.859
324.2192
324.2192
513.9362
513.9362
0.0 0.346729 0.0
221.3444
240.9001
387.8447
471.4973
528.7637
549.3598
0.0 0.346729 0.062239
227.645
243.1084
385.099
476.9326
510.8391
562.411
0.0 0.346729 0.124478
244.7396
252.3974
376.8257
467.6039
505.6846
575.4333
0.0 0.346729 0.186717
268.5615
272.7969
363.0463
430.5337
527.3826
581.0947
0.0 0.346729 0.248956
295.0075
304.6197
344.1164
387.9108
550.0337
578.5619
0.0 0.346729 -0.311194
320.9324
320.9324
344.5163
344.5163
567.8914
567.8914
0.0 0.462305 0.0
250.7565
300.8839
411.0527
504.3167
531.9326
580.1157
0.0 0.462305 0.062239
256.5676
297.7697
408.3521
489.7385
540.605
587.3158
0.0 0.462305 0.124478
272.5727
293.2712
400.2717
458.6177
558.9272
600.1885
0.0 0.462305 0.186717
295.3268
296.5495
386.92
420.575
579.4601
609.7848
0.0 0.462305 0.248956
313.218
320.946
368.6273
380.3436
596.9924
612.8857
0.0 0.462305 -0.311194
342.7085
342.7085
346.1558
346.1558
608.5606
608.5606
0.0 -0.577881 0.0
259.5594
328.8079
418.9662
480.4467
550.6091
596.2151
0.0 -0.577881 0.062239
265.2208
323.2557
416.2428
470.0822
558.0926
601.4814
0.0 -0.577881 0.124478
280.917
312.5619
408.1266
443.9993
575.8837
612.2536
0.0 -0.577881 0.186717
303.4335
307.9219
394.781
409.7751
595.7657
621.426
0.0 -0.577881 0.248956
316.8782
328.9543
373.2234
376.541
612.0974
625.2391
0.0 -0.577881 -0.311194
340.1647
340.1647
354.1236
354.1236
622.2101
622.2101
0.100092 0.173364 0.0
146.4159
164.1851
297.4195
365.8186
409.7543
599.9899
0.100092 0.173364 0.062239
158.1729
171.4901
307.7546
365.6802
405.0105
596.4082
0.100092 0.173364 0.124478
186.9804
190.822
325.0205
374.6645
391.1172
585.3729
0.100092 0.173364 0.186717
216.8361
222.758
321.9067
369.1023
410.5585
566.1753
0.100092 0.173364 0.248956
244.4578
257.6027
307.7347
340.8658
457.1285
538.1344
0.100092 0.173364 -0.311194
267.1071
267.1071
311.5321
311.5321
501.2548
501.2548
0.100092 0.28894 0.0
216.785
234.0751
366.1362
451.0289
489.1707
564.9292
0.100092 0.28894 0.062239
217.667
241.1543
369.2266
453.5966
481.0414
567.2549
0.100092 0.28894 0.124478
226.1111
258.1582
372.1356
448.0199
476.0057
570.2303
0.100092 0.28894 0.186717
246.5571
280.1834
366.9257
417.9966
496.2078
568.6341
0.100092 0.28894 0.248956
275.9909
301.4924
355.1596
383.1298
521.528
560.0513
0.100092 0.28894 -0.311194
302.962
302.962
355.6982
355.6982
543.9706
543.9706
0.100092 0.404517 0.0
276.6208
281.7464
411.3024
510.6104
520.2074
554.914
0.100092 0.404517 0.062239
270.395
289.9366
410.8301
494.9675
524.3588
566.2352
0.100092 0.404517 0.124478
265.0238
305.287
405.65
464.2836
538.6059
581.7542
0.100092 0.404517 0.186717
269.2331
324.6123
390.5107
432.9038
557.5774
591.5734
0.100092 0.404517 0.248956
286.8673
336.3484
372.8454
406.7167
575.4516
593.8243
0.100092 0.404517 -0.311194
314.6167
314.6167
384.3917
384.3917
588.2158
588.2158
0.100092 0.520093 0.0
295.5045
329.4997
433.5878
480.6449
539.7643
587.2098
0.100092 0.520093 0.062239
295.2939
328.3798
428.1567
472.9143
547.7232
592.2217
0.100092 0.520093 0.124478
290.3342
334.4956
410.1219
457.2602
565.8405
602.6867
0.100092 0.520093 0.186717
285.9751
350.6876
381.8011
440.0906
585.8171
611.7593
0.100092 0.520093 0.248956
293.0877
343.8496
377.1754
420.9289
602.266
615.5629
0.100092 0.520093 -0.311194
314.0423
314.0423
399.3621
399.3621
612.4898
612.4898
0.200184 0.346729 0.0
275.1084
314.3098
403.2925
516.5495
524.1282
525.809
0.200184 0.346729 0.062239
269.3141
318.3621
410.0759
488.6035
526.03
547.5474
0.200184 0.346729 0.124478
260.7159
328.8835
421.3493
452.4665
533.0053
566.0264
0.200184 0.346729 0.186717
262.0664
339.8043
417.4761
425.0314
545.9345
576.6029
0.200184 0.346729 0.248956
278.3542
334.1432
400.2809
418.9302
561.1479
578.9153
0.200184 0.346729 -0.311194
306.2791
306.2791
407.4084
407.4084
573.2797
573.2797
0.200184 0.462305 0.0
330.6172
361.6199
449.0512
480.9645
526.0014
564.3269
0.200184 0.462305 0.062239
318.6353
367.3791
447.4882
470.8392
537.6496
567.5073
0.200184 0.462305 0.124478
297.6158
375.0572
425.4613
472.2916
554.1146
576.8879
0.200184 0.462305 0.186717
283.1697
362.3844
417.3035
472.0453
569.4019
587.3191
0.200184 0.462305 0.248956
283.6258
330.1047
431.3138
463.3303
582.8376
592.8434
0.200184 0.462305 -0.311194
300.7191
300.7191
448.6333
448.6333
591.2999
591.2999
0.200184 0.577881 0.0
361.3093
375.2585
453.4725
473.4217
522.9007
577.4518
0.200184 0.577881 0.062239
343.5949
387.459
430.3201
486.7276
531.4851
579.9312
0.200184 0.577881 0.124478
317.3597
394.3241
404.1059
494.5232
550.9622
586.7346
0.200184 0.577881 0.186717
296.1009
356.5751
423.2175
491.2027
571.6277
594.581
0.200184 0.577881 0.248956
288.3133
322.4016
443.7115
479.8901
587.7983
598.986
0.200184 0.577881 -0.311194
297.7761
297.7761
463.3456
463.3456
597.075
597.075
0.300276 0.520093 0.0
380.0918
427.791
436.5932
483.1022
511.9566
564.9201
0.300276 0.520093 0.062239
365.1743
413.127
437.6565
494.6548
524.8674
563.6816
0.300276 0.520093 0.124478
335.3519
378.6859
447.9573
513.9076
547.0832
561.9135
0.300276 0.520093 0.186717
307.6201
341.9001
463.7008
521.6361
565.6069
565.8951
0.300276 0.520093 0.248956
291.6582
311.0546
481.8894
514.3314
574.7794
576.7993
0.300276 0.520093 -0.311194
292.7841
292.7841
499.6754
499.6754
579.6591
579.6591
P	=	2999.94	V	=	92.89352	E	=	-655.26218407
0.0 0.0 0.0
-0.0
-0.0
0.0
319.772
319.772
668.3133
0.0 0.0 0.062255
48.8614
48.8614
118.0897
315.5471
315.5471
662.4118
0.0 0.0 0.12451
96.4052
96.4052
231.4073
303.0073
303.0073
644.2679
0.0 0.0 0.186766
141.5802
141.5802
282.6041
282.6041
335.694
612.7662
0.0 0.0 0.249021
183.6168
183.6168
255.1618
255.1618
427.6019
566.6162
0.0 0.0 -0.311276
221.7874
221.7874
221.7874
221.7874
504.9175
504.9175
0.0 0.115556 0.0
91.3389
95.537
209.243
336.5501
369.3813
657.7373
0.0 0.115556 0.062255
108.0242
117.8797
231.2857
332.6777
365.1281
652.3993
0.0 0.115556 0.12451
137.7917
160.6059
291.6293
321.1294
352.6269
636.0424
0.0 0.115556 0.186766
174.0113
200.2411
302.2191
331.9286
369.4381
607.7977
0.0 0.115556 0.249021
210.9281
237.9043
276.6927
305.2853
445.442
566.7022
0.0 0.115556 -0.311276
245.7577
245.7577
273.3675
273.3675
512.3093
512.3093
0.0 0.231113 0.0
177.2661
177.5742
373.9979
382.8458
469.989
627.4785
0.0 0.231113 0.062255
185.1951
188.5715
370.7328
393.5736
464.2769
624.8318
0.0 0.231113 0.12451
206.1746
217.4332
360.9081
420.6716
449.3467
616.4165
0.0 0.231113 0.186766
234.5189
256.428
344.6108
416.4025
466.5056
601.1069
0.0 0.231113 0.249021
265.3469
299.4758
322.3833
382.6298
507.7699
577.8138
0.0 0.231113 -0.311276
295.3907
295.3907
342.5585
342.5585
546.2586
546.2586
0.0 0.346669 0.0
234.8657
254.6616
411.0278
500.6934
560.724
582.5407
0.0 0.346669 0.062255
241.4728
257.0387
408.0898
506.1382
541.686
596.7298
0.0 0.346669 0.12451
259.4248
266.9699
399.2498
494.8329
537.3062
610.9068
0.0 0.346669 0.186766
284.4994
288.6512
384.5605
455.393
560.3272
617.1753
0.0 0.346669 0.249021
312.4094
322.3317
364.4315
410.2827
584.3702
614.6284
0.0 0.346669 -0.311276
339.8401
339.8401
364.4602
364.4602
603.3399
603.3399
0.0 0.462226 0.0
266.0474
317.4272
435.7352
533.9257
564.4517
615.6786
0.0 0.462226 0.062255
272.1124
314.3416
432.8196
518.446
573.7441
623.3513
0.0 0.462226 0.12451
288.8636
310.0454
424.1257
485.4938
593.2851
637.177
0.0 0.462226 0.186766
312.7781
313.9423
409.834
445.2946
615.1857
647.5491
0.0 0.462226 0.249021
331.807
339.8108
390.3476
402.8109
633.9269
650.9323
0.0 0.462226 -0.311276
363.05
363.05
366.495
366.495
646.3146
646.3146
0.0 -0.577782 0.0
275.3609
346.6632
444.208
508.2614
584.1518
632.9398
0.0 -0.577782 0.062255
281.2621
341.0562
441.2538
497.4128
592.0865
638.5605
0.0 -0.577782 0.12451
297.6768
330.3325
432.4884
470.0493
611.0239
650.1131
0.0 -0.577782 0.186766
321.3367
325.982
418.1701
434.0493
632.291
659.9813
0.0 -0.577782 0.249021
335.7903
348.2691
395.5013
398.7199
649.8399
664.0651
0.0 -0.577782 -0.311276
360.5447
360.5447
374.916
374.916
660.7587
660.7587
0.100075 0.173335 0.0
155.3588
173.8956
316.1084
388.2474
434.1292
637.2866
0.100075 0.173335 0.062255
167.5267
181.6299
326.9979
388.2097
429.0285
633.4839
0.100075 0.173335 0.12451
197.632
202.0896
344.7691
398.266
414.1101
621.7864
0.100075 0.173335 0.186766
229.6139
235.3594
341.0534
390.536
436.6063
601.4683
0.100075 0.173335 0.249021
258.8548
272.3287
325.7718
360.4138
485.9877
571.7985
0.100075 0.173335 -0.311276
282.8206
282.8206
329.2897
329.2897
532.7473
532.7473
0.100075 0.288891 0.0
229.4279
247.9415
388.0409
479.1493
518.4923
599.3785
0.100075 0.288891 0.062255
230.3401
255.3702
391.2472
481.6507
509.9529
602.0142
0.100075 0.288891 0.12451
239.2315
273.2611
394.1917
474.1856
505.8996
605.4852
0.100075 0.288891 0.186766
260.8453
296.4819
388.5536
442.0478
527.4445
604.0548
0.100075 0.288891 0.249021
291.9481
318.9599
375.9685
405.1657
554.2811
595.0993
0.100075 0.288891 -0.311276
320.4547
320.4547
376.3497
376.3497
578.086
578.086
0.100075 0.404447 0.0
293.1011
297.4939
435.6343
541.8866
551.0661
588.8633
0.100075 0.404447 0.062255
285.9543
306.7887
435.0938
524.0965
556.8213
600.805
0.100075 0.404447 0.12451
280.3248
323.1338
429.4974
491.4535
572.0939
617.4824
0.100075 0.404447 0.186766
284.9664
343.5232
413.3371
458.3768
592.1972
628.1395
0.100075 0.404447 0.249021
303.6962
355.7986
394.7829
430.7362
611.1668
630.6587
0.100075 0.404447 -0.311276
332.9443
332.9443
407.0709
407.0709
624.7321
624.7321
0.100075 0.520004 0.0
313.1374
347.5218
459.3465
508.4804
572.5129
623.3765
0.100075 0.520004 0.062255
312.6002
346.8222
453.3881
500.5777
580.9958
628.6859
0.100075 0.520004 0.12451
307.0337
353.9991
433.9636
484.4823
600.3225
639.8526
0.100075 0.520004 0.186766
302.6535
371.2726
404.032
466.4257
621.6752
649.5809
0.100075 0.520004 0.249021
310.4093
363.9704
399.4597
446.014
639.3053
653.6438
0.100075 0.520004 -0.311276
332.5977
332.5977
423.0316
423.0316
650.3045
650.3045
0.20015 0.346669 0.0
290.6321
332.6085
427.029
547.0485
557.1211
557.2813
0.20015 0.346669 0.062255
284.5818
336.8408
434.1789
517.1617
559.2687
580.5569
0.20015 0.346669 0.12451
275.6757
347.8365
446.0862
478.7316
566.5605
600.627
0.20015 0.346669 0.186766
277.3008
359.2105
441.8156
450.0049
580.1049
612.1896
0.20015 0.346669 0.249021
294.5866
353.1764
423.8337
443.5612
596.1095
614.8222
0.20015 0.346669 -0.311276
323.9687
323.9687
431.3678
431.3678
608.9146
608.9146
0.20015 0.462226 0.0
348.9085
382.7911
475.1978
508.8332
557.3415
599.4441
0.20015 0.462226 0.062255
336.4013
388.7974
473.3353
498.3579
570.0488
602.6286
0.20015 0.462226 0.12451
314.4915
396.6503
450.1798
500.2001
588.0321
612.2748
0.20015 0.462226 0.186766
299.5892
383.0164
442.0071
500.0851
604.3687
623.3142
0.20015 0.462226 0.249021
300.3139
349.2002
456.8544
490.8684
618.6039
629.2187
0.20015 0.462226 -0.311276
318.3733
318.3733
475.2406
475.2406
627.5826
627.5826
0.20015 0.577782 0.0
381.2208
397.3219
479.3704
500.9197
554.0956
613.1712
0.20015 0.577782 0.062255
362.7339
410.167
454.7435
515.3843
563.2342
615.7052
0.20015 0.577782 0.12451
335.2614
416.7248
427.9501
524.0953
584.026
622.7629
0.20015 0.577782 0.186766
313.201
377.076
448.2746
520.73
606.1342
630.9997
0.20015 0.577782 0.249021
305.2994
341.2506
470.0614
508.6636
623.4623
635.5954
0.20015 0.577782 -0.311276
315.3853
315.3853
490.9847
490.9847
633.451
633.451
0.300224 0.520004 0.0
401.2004
453.1722
461.3162
510.9414
541.5742
600.212
0.300224 0.520004 0.062255
385.507
436.5065
463.6301
523.3442
555.4626
598.8238
0.300224 0.520004 0.12451
354.2526
400.0622
474.7639
544.1762
579.4068
596.6539
0.300224 0.520004 0.186766
325.3468
361.493
491.5049
552.9585
599.3607
600.2986
0.300224 0.520004 0.249021
308.8212
329.2419
510.847
545.4157
609.3979
611.3857
0.300224 0.520004 -0.311276
310.1126
310.1126
529.8017
529.8017
614.4825
614.4825
P	=	3200.0	V	=	91.49602	E	=	-655.23274237
0.0 0.0 0.0
-0.0
-0.0
0.0
326.592
326.592
683.0793
0.0 0.0 0.062262
49.9459
49.9459
120.7112
322.2847
322.2847
677.0145
0.0 0.0 0.124523
98.5316
98.5316
236.5308
309.4955
309.4955
658.3953
0.0 0.0 0.186785
144.6788
144.6788
288.676
288.676
343.0939
626.1345
0.0 0.0 0.249046
187.6081
187.6082
260.662
260.662
436.9765
578.9536
0.0 0.0 -0.311308
226.585
226.585
226.585
226.585
515.934
515.934
0.0 0.115549 0.0
93.3467
97.581
213.8555
343.6803
377.136
672.205
0.0 0.115549 0.062262
110.3429
120.2912
236.4613
339.7273
372.792
666.7276
0.0 0.115549 0.124523
140.7598
163.8052
298.1863
327.9399
360.0203
649.9667
0.0 0.115549 0.186785
177.7598
204.2743
308.6406
338.8461
377.6857
621.0776
0.0 0.115549 0.249046
215.46
242.7434
282.5903
311.6015
455.3017
579.1014
0.0 0.115549 -0.311308
251.017
251.017
278.9744
278.9744
523.5715
523.5715
0.0 0.231097 0.0
181.0227
181.3773
381.862
391.1967
479.7742
641.0817
0.0 0.231097 0.062262
189.1092
192.5125
378.5212
402.1687
473.9323
638.3958
0.0 0.231097 0.124523
210.5164
221.8156
368.477
429.7642
458.7607
629.8534
0.0 0.231097 0.186785
239.4548
261.5081
351.8339
424.8281
476.8365
614.2929
0.0 0.231097 0.249046
270.9347
305.3842
329.1505
390.2755
519.0271
590.5684
0.0 0.231097 -0.311308
301.6052
301.6052
349.3392
349.3392
558.3616
558.3616
0.0 0.346646 0.0
239.7996
259.9115
419.6773
511.4375
572.5291
594.8643
0.0 0.346646 0.062262
246.5226
262.3258
416.6674
516.895
553.1016
609.4777
0.0 0.346646 0.124523
264.8062
272.4302
407.6174
504.935
548.9769
624.1244
0.0 0.346646 0.186785
290.3778
294.518
392.5937
464.6258
572.5306
630.6632
0.0 0.346646 0.249046
318.8723
328.8533
372.0205
418.5728
597.1514
628.1289
0.0 0.346646 -0.311308
346.8939
346.8939
371.8192
371.8192
616.5882
616.5882
0.0 0.462195 0.0
271.6063
323.7355
444.9473
544.9331
576.4408
628.7788
0.0 0.462195 0.062262
277.7685
320.6441
441.96
529.1114
585.9728
636.6508
0.0 0.462195 0.124523
294.8049
316.3772
433.0516
495.4754
605.9953
650.8825
0.0 0.462195 0.186785
319.1661
320.4463
418.4077
454.4709
628.457
661.6054
0.0 0.462195 0.249046
338.713
346.7544
398.447
411.1439
647.7053
665.1438
0.0 0.462195 -0.311308
370.5913
370.5913
374.0325
374.0325
660.4297
660.4297
0.0 -0.577743 0.0
281.1042
353.4396
453.6214
518.6297
596.5283
646.4509
0.0 -0.577743 0.062262
287.0972
347.8025
450.5949
507.594
604.648
652.2127
0.0 -0.577743 0.124523
303.7829
337.0416
441.6105
479.738
624.0594
664.0894
0.0 -0.577743 0.186785
327.8736
332.7638
426.9272
443.0632
645.905
674.2799
0.0 -0.577743 0.249046
342.8539
355.3535
403.772
406.9834
663.9554
678.5387
0.0 -0.577743 -0.311308
368.1259
368.1259
382.6003
382.6003
675.1774
675.1774
0.100068 0.173323 0.0
158.7168
177.4843
322.9776
396.5382
443.1588
651.1702
0.100068 0.173323 0.062262
171.0318
185.3831
334.0786
396.5527
437.9353
647.2881
0.100068 0.173323 0.124523
201.6048
206.2841
352.0541
407.0493
422.6532
635.3566
0.100068 0.173323 0.186785
234.4104
240.0355
348.1651
398.502
446.3359
614.647
0.100068 0.173323 0.249046
264.2886
277.787
332.514
367.664
496.7978
584.3994
0.100068 0.173323 -0.311308
288.7308
288.7308
335.8754
335.8754
544.5522
544.5522
0.100068 0.288872 0.0
234.2354
253.0065
396.1397
489.5377
529.3676
612.1723
0.100068 0.288872 0.062262
235.123
260.5777
399.3951
492.019
520.6845
614.9355
0.100068 0.288872 0.124523
244.1165
278.8155
402.3733
483.9107
516.964
618.6241
0.100068 0.288872 0.186785
266.1086
302.5139
396.6043
450.9866
539.0332
617.2925
0.100068 0.288872 0.249046
297.824
325.4637
383.72
413.3333
566.4814
608.2145
0.100068 0.288872 -0.311308
326.954
326.954
384.0075
384.0075
590.8367
590.8367
0.100068 0.40442 0.0
299.1065
303.5017
444.6805
553.4574
562.5093
601.4035
0.100068 0.40442 0.062262
291.7577
313.0434
444.1278
534.9015
568.8097
613.6094
0.100068 0.40442 0.124523
286.026
329.7076
438.4024
501.5323
584.4635
630.7663
0.100068 0.40442 0.186785
290.7811
350.4869
421.8672
467.8285
605.0248
641.7837
0.100068 0.40442 0.249046
309.89
362.984
402.9436
439.6595
624.4602
644.4296
0.100068 0.40442 -0.311308
339.7051
339.7051
415.4946
415.4946
638.3721
638.3721
0.100068 0.519969 0.0
319.5792
354.3533
468.944
518.8249
584.629
636.7005
0.100068 0.519969 0.062262
318.9341
353.7803
462.8019
510.8533
593.3134
642.1275
0.100068 0.519969 0.124523
313.1897
361.2627
442.8705
494.5934
613.115
653.5844
0.100068 0.519969 0.186785
308.8108
378.8844
412.321
476.2179
635.025
663.6135
0.100068 0.519969 0.249046
316.8004
371.4223
407.7156
455.3393
653.1382
667.8371
0.100068 0.519969 -0.311308
339.4528
339.4528
431.8121
431.8121
664.4356
664.4356
0.200136 0.346646 0.0
296.5499
339.2736
435.8028
558.4488
568.7137
569.505
0.200136 0.346646 0.062262
290.3768
343.5731
443.1007
527.7969
571.5223
592.8372
0.200136 0.346646 0.124523
281.2861
354.7552
455.2706
488.5108
578.9362
613.5297
0.200136 0.346646 0.186785
282.934
366.3331
450.8592
459.3013
592.7423
625.4897
0.200136 0.346646 0.249046
300.5471
360.1981
432.5619
452.7343
609.102
628.2513
0.200136 0.346646 -0.311308
330.4759
330.4759
440.271
440.271
622.2156
622.2156
0.200136 0.462195 0.0
355.829
390.566
484.8857
519.1392
569.0296
612.4133
0.200136 0.462195 0.062262
343.0898
396.6666
482.9339
508.5498
582.0974
615.6045
0.200136 0.462195 0.124523
320.7962
404.5623
459.3748
510.5623
600.6072
625.3828
0.200136 0.462195 0.186785
305.6715
390.5986
451.1565
510.5103
617.3375
636.7009
0.200136 0.462195 0.249046
306.461
356.2283
466.3051
501.1011
631.9128
642.7866
0.200136 0.462195 -0.311308
324.8678
324.8678
485.1079
485.1079
641.1191
641.1191
0.200136 0.577743 0.0
388.6967
405.4687
488.9676
511.1449
565.6902
626.3596
0.200136 0.577743 0.062262
369.8607
418.5922
463.8022
526.0306
575.0295
628.9076
0.200136 0.577743 0.124523
341.8919
425.0241
436.7789
535.0819
596.3119
636.0639
0.200136 0.577743 0.186785
319.5082
384.6546
457.5341
531.696
618.9807
644.4866
0.200136 0.577743 0.249046
311.5548
348.2045
479.8034
519.3395
636.7678
649.2133
0.200136 0.577743 -0.311308
321.8734
321.8734
501.2228
501.2228
647.0222
647.0222
0.300204 0.519969 0.0
409.0865
462.6204
470.4643
521.2477
552.605
613.2657
0.300204 0.519969 0.062262
393.0861
445.1381
473.2995
533.9735
566.8393
611.8116
0.300204 0.519969 0.124523
361.2643
407.9372
484.7013
555.4035
591.4187
609.4792
0.300204 0.519969 0.186785
331.8931
368.6983
501.7809
564.5721
611.9216
613.0303
0.300204 0.519969 0.249046
315.1452
335.9302
521.5498
556.9284
622.2692
624.2799
0.300204 0.519969 -0.311308
316.4918
316.4918
540.9499
540.9499
627.4659
627.4659
P	=	3399.93	V	=	90.18174	E	=	-655.2032642
0.0 0.0 0.0
-0.0
0.0
0.0
333.0115
333.0115
697.4165
0.0 0.0 0.062267
50.9428
50.9428
123.1865
328.6071
328.6071
691.1802
0.0 0.0 0.124534
100.4985
100.4985
241.4211
315.5412
315.5412
672.0807
0.0 0.0 0.186801
147.5602
147.5602
294.2991
294.2991
350.2411
639.092
0.0 0.0 0.249069
191.322
191.322
265.7481
265.7481
446.1015
590.9483
0.0 0.0 -0.311336
231.0344
231.0344
231.0344
231.0344
526.6739
526.6739
0.0 0.115543 0.0
95.2716
99.5583
218.3834
350.4009
384.5126
686.2496
0.0 0.115543 0.062267
112.5732
122.5667
241.553
346.3568
380.0608
680.6264
0.0 0.115543 0.124534
143.5905
166.8502
304.6144
334.3105
366.9856
663.4544
0.0 0.115543 0.186801
181.309
208.1496
314.6188
345.3328
385.7348
633.9368
0.0 0.115543 0.249069
219.7198
247.372
288.0757
317.5272
464.9104
591.1269
0.0 0.115543 -0.311336
255.9273
255.9273
284.2787
284.2787
534.523
534.523
0.0 0.231085 0.0
184.6992
185.0349
389.2692
399.3977
489.1627
654.2756
0.0 0.231085 0.062267
192.9396
196.3414
385.8478
410.6293
483.1726
651.5433
0.0 0.231085 0.124534
214.7501
226.1362
375.5763
438.6938
467.7642
642.8519
0.0 0.231085 0.186801
244.2207
266.5209
358.5925
432.8176
486.978
627.0168
0.0 0.231085 0.249069
276.2602
311.1435
335.4882
397.5321
530.0016
602.8671
0.0 0.231085 -0.311336
307.4617
307.4617
355.845
355.845
570.0721
570.0721
0.0 0.346628 0.0
244.6696
264.9763
427.7977
521.8843
583.9398
606.7941
0.0 0.346628 0.062267
251.5067
267.4572
424.711
527.3375
564.1578
621.7952
0.0 0.346628 0.124534
270.1015
277.7944
415.4459
514.5864
560.4251
636.8465
0.0 0.346628 0.186801
296.108
300.3045
400.1036
473.4044
584.478
643.599
0.0 0.346628 0.249069
325.0835
335.2221
379.1422
426.468
609.57
641.0747
0.0 0.346628 -0.311336
353.5779
353.5779
378.8981
378.8981
629.3537
629.3537
0.0 0.462171 0.0
277.1077
329.834
453.5786
555.5589
587.9113
641.5616
0.0 0.462171 0.062267
283.3616
326.7308
450.5104
539.3599
597.7188
649.5924
0.0 0.462171 0.124534
300.6589
322.5028
441.3769
504.9954
618.2548
664.1381
0.0 0.462171 0.186801
325.4083
326.7747
426.4039
463.1853
641.2655
675.1224
0.0 0.462171 0.249069
345.4344
353.4511
406.0477
419.0894
660.9704
678.7725
0.0 0.462171 -0.311336
377.8623
377.8623
381.1937
381.1937
673.9779
673.9779
0.0 -0.577713 0.0
286.7883
359.998
462.4378
528.6202
608.2818
659.6887
0.0 -0.577713 0.062267
292.8652
354.3095
459.3271
517.359
616.6016
665.5606
0.0 -0.577713 0.124534
309.7954
343.4968
450.1093
488.9489
636.5053
677.6757
0.0 -0.577713 0.186801
334.2609
339.325
435.0867
451.6009
658.9271
688.0859
0.0 -0.577713 0.249069
349.7201
362.1915
411.659
414.7375
677.4671
692.4432
0.0 -0.577713 -0.311336
375.4475
375.4475
389.9068
389.9068
688.9929
688.9929
0.100063 0.173314 0.0
161.9444
181.0011
329.654
404.4723
451.7818
664.6407
0.100063 0.173314 0.062267
174.4234
189.0578
340.9562
404.5575
446.4194
660.6732
0.100063 0.173314 0.124534
205.4926
210.3683
359.0131
415.6076
430.7462
648.4934
0.100063 0.173314 0.186801
239.0257
244.6168
354.8578
406.0248
455.8787
627.3824
0.100063 0.173314 0.249069
269.4423
283.0526
338.8714
374.5393
507.3398
596.5745
0.100063 0.173314 -0.311336
294.2873
294.2873
342.1808
342.1808
555.9932
555.9932
0.100063 0.288857 0.0
238.872
258.012
403.8641
499.6084
539.7994
624.5683
0.100063 0.288857 0.062267
239.7787
265.7214
407.1552
502.0572
531.0048
627.4382
0.100063 0.288857 0.124534
248.9387
284.29
410.1217
493.1705
527.7994
631.2955
0.100063 0.288857 0.186801
271.304
308.3999
404.1903
459.4701
550.4041
630.0198
0.100063 0.288857 0.249069
303.5252
331.7005
391.0567
421.1121
578.3743
620.8261
0.100063 0.288857 -0.311336
333.1329
333.1329
391.3364
391.3364
603.1612
603.1612
0.100063 0.404399 0.0
305.0492
309.3102
453.2206
564.5526
573.5716
613.5772
0.100063 0.404399 0.062267
297.4426
319.1692
452.6405
545.2572
580.4325
625.9891
0.100063 0.404399 0.124534
291.623
336.1634
446.7555
511.1612
596.5012
643.5458
0.100063 0.404399 0.186801
296.4961
357.2943
429.8642
476.8264
617.5111
654.8696
0.100063 0.404399 0.249069
315.9236
369.8868
410.7134
448.1501
637.3461
657.6439
0.100063 0.404399 -0.311336
346.1928
346.1928
423.5523
423.5523
651.5163
651.5163
0.100063 0.519942 0.0
325.9407
360.9672
477.9594
528.8016
596.1443
649.7211
0.100063 0.519942 0.062267
325.1927
360.5015
471.6359
520.7182
605.05
655.235
0.100063 0.519942 0.124534
319.2503
368.2948
451.2183
504.2158
625.3546
666.9056
0.100063 0.519942 0.186801
314.8552
386.2668
420.1106
485.4986
647.833
677.1558
0.100063 0.519942 0.249069
323.0437
378.5073
415.6808
464.2099
666.4246
681.4914
0.100063 0.519942 -0.311336
346.0618
346.0618
440.2343
440.2343
678.0145
678.0145
0.200126 0.346628 0.0
302.2749
345.8703
444.19
569.2057
579.9276
581.4438
0.200126 0.346628 0.062267
296.0077
350.2387
451.6231
537.9136
583.4957
604.5982
0.200126 0.346628 0.124534
286.792
361.5916
464.0095
497.7957
591.0484
625.8693
0.200126 0.346628 0.186801
288.4845
373.2941
459.4656
468.1055
605.1145
638.2167
0.200126 0.346628 0.249069
306.3646
366.9346
440.9438
461.4318
621.7661
641.1514
0.200126 0.346628 -0.311336
336.7348
336.7348
448.7789
448.7789
635.0823
635.0823
0.200126 0.462171 0.0
362.5325
398.1955
494.1064
529.0933
580.0777
625.0436
0.200126 0.462171 0.062267
349.5901
404.3776
492.0624
518.3294
593.5631
628.2111
0.200126 0.462171 0.124534
326.9557
412.2997
468.1219
520.4349
612.6906
638.0359
0.200126 0.462171 0.186801
311.6392
397.9041
459.973
520.4224
629.8839
649.5788
0.200126 0.462171 0.249069
312.48
362.9835
475.4429
510.8665
644.8069
655.8587
0.200126 0.462171 -0.311336
331.1672
331.1672
494.5949
494.5949
654.2051
654.2051
0.200126 0.577713 0.0
395.9401
413.4254
498.23
520.8075
576.7034
639.1992
0.200126 0.577713 0.062267
376.8128
426.7664
472.4706
536.1519
586.2525
641.7394
0.200126 0.577713 0.124534
348.388
432.9304
445.327
545.5306
608.0467
648.9486
0.200126 0.577713 0.186801
325.709
391.8773
466.5101
542.1451
631.3066
657.5246
0.200126 0.577713 0.249069
317.7
354.887
489.2478
529.5713
649.5856
662.3719
0.200126 0.577713 -0.311336
328.19
328.19
511.1059
511.1059
660.127
660.127
0.300189 0.519942 0.0
416.7225
471.7374
479.3047
531.1076
563.068
625.9251
0.300189 0.519942 0.062267
400.4322
453.4794
482.6049
544.1436
577.6642
624.3865
0.300189 0.519942 0.124534
368.0811
415.5344
494.2733
566.1462
602.8972
621.8723
0.300189 0.519942 0.186801
338.2865
375.6592
511.714
575.6919
623.9859
625.3527
0.300189 0.519942 0.249069
321.3431
342.4296
531.922
568.002
634.7497
636.7304
0.300189 0.519942 -0.311336
322.7324
322.7324
551.7332
551.7332
640.0478
640.0478
P	=	3600.14	V	=	88.94218	E	=	-655.17377477
0.0 0.0 0.0
-0.0
0.0
0.0
339.261
339.261
711.3632
0.0 0.0 0.062272
51.9308
51.9308
125.5176
334.7691
334.7691
704.9448
0.0 0.0 0.124545
102.4119
102.4119
246.1032
321.4401
321.4401
685.3613
0.0 0.0 0.186817
150.3112
150.3112
299.7667
299.7667
357.203
651.6943
0.0 0.0 0.249089
194.8386
194.8386
270.6448
270.6448
455.0807
602.6881
0.0 0.0 -0.311362
235.2679
235.2679
235.268
235.268
537.2484
537.2484
0.0 0.115538 0.0
97.1237
101.365
222.7503
356.9652
391.6767
699.9044
0.0 0.115538 0.062272
114.6325
124.7675
246.3981
352.8372
387.1201
694.1308
0.0 0.115538 0.124545
146.2338
169.7876
310.7001
340.5419
373.7502
676.5555
0.0 0.115538 0.186817
184.6396
211.8619
320.4484
351.6146
393.4802
646.4597
0.0 0.115538 0.249089
223.7426
251.8085
293.3779
323.2566
474.2835
602.895
0.0 0.115538 -0.311362
260.6154
260.6154
289.3863
289.3863
545.2653
545.2653
0.0 0.231076 0.0
188.0556
188.5445
396.5448
407.2576
498.2671
667.0903
0.0 0.231076 0.062272
196.4402
200.0244
393.0451
418.6712
492.1306
664.3209
0.0 0.231076 0.124545
218.64
230.2952
382.5468
447.0803
476.5092
655.5079
0.0 0.231076 0.186817
248.6507
271.3533
365.2081
440.5174
496.6441
639.4341
0.0 0.231076 0.249089
281.2888
316.731
341.6452
404.5842
540.5628
614.8759
0.0 0.231076 -0.311362
313.0803
313.0803
362.1845
362.1845
581.457
581.457
0.0 0.346613 0.0
249.0841
269.8271
435.8141
531.8551
594.967
618.3755
0.0 0.346613 0.062272
256.0311
272.3983
432.6525
537.2557
574.8712
633.7576
0.0 0.346613 0.124545
274.9406
282.984
423.1711
523.8799
571.3559
649.2326
0.0 0.346613 0.186817
301.4191
305.8934
407.4913
481.9428
595.8587
656.21
0.0 0.346613 0.249089
330.9508
341.3829
386.0919
434.1742
621.4838
653.6726
0.0 0.346613 -0.311362
360.01
360.01
385.7867
385.7867
641.7051
641.7051
0.0 0.462151 0.0
282.0414
335.6749
462.1353
565.8788
598.8757
653.8213
0.0 0.462151 0.062272
288.3897
332.5898
458.9945
549.3393
608.9482
662.0456
0.0 0.462151 0.124545
305.9681
328.4252
449.6462
514.3455
629.966
676.9761
0.0 0.462151 0.186817
331.1636
332.8576
434.3252
471.7882
653.5208
688.2651
0.0 0.462151 0.249089
351.8683
359.7628
413.5036
426.8824
673.7179
692.0094
0.0 0.462151 -0.311362
384.8879
384.8879
388.0962
388.0962
687.0729
687.0729
0.0 -0.577689 0.0
291.8587
366.2805
471.1932
538.3288
619.5351
672.3341
0.0 -0.577689 0.062272
298.025
360.5608
468.011
526.9133
628.048
678.3582
0.0 -0.577689 0.124545
315.2254
349.703
458.578
498.085
648.4327
690.8017
0.0 -0.577689 0.186817
340.1311
345.5803
443.1985
460.1183
671.4261
701.4912
0.0 -0.577689 0.249089
356.2371
368.6257
419.4329
422.3635
690.4704
705.9361
0.0 -0.577689 -0.311362
382.4973
382.4973
396.953
396.953
702.3441
702.3441
0.100059 0.173307 0.0
165.0431
184.2922
335.9973
412.2797
460.1336
677.7272
0.100059 0.173307 0.062272
177.6817
192.4935
347.4514
412.4159
454.6257
673.6795
0.100059 0.173307 0.124545
209.2109
214.191
365.6627
423.8582
438.556
661.2734
0.100059 0.173307 0.186817
243.3757
248.9842
361.3797
413.282
464.9945
639.8035
0.100059 0.173307 0.249089
274.3514
288.0846
345.0859
381.1887
517.5163
608.4715
0.100059 0.173307 -0.311362
299.6152
299.6152
348.3084
348.3084
567.1423
567.1423
0.100059 0.288845 0.0
243.3134
262.6878
411.2678
509.3619
549.9166
636.603
0.100059 0.288845 0.062272
244.2309
270.5408
414.5997
511.7086
541.022
639.5913
0.100059 0.288845 0.124545
253.5285
289.4447
417.6075
502.051
538.2186
643.6367
0.100059 0.288845 0.186817
276.2332
313.9949
411.572
467.6621
561.2663
642.4261
0.100059 0.288845 0.249089
308.9645
337.7046
398.1922
428.6699
589.7979
633.1008
0.100059 0.288845 -0.311362
339.0864
339.0864
398.4643
398.4643
615.0947
615.0947
0.100059 0.404382 0.0
310.5163
314.8724
461.5572
575.1825
584.3115
625.3279
0.100059 0.404382 0.062272
302.7757
324.9437
460.9608
555.25
591.6164
637.9665
0.100059 0.404382 0.124545
296.9062
342.2558
454.9382
520.5072
608.0198
655.9547
0.100059 0.404382 0.186817
301.8977
363.775
437.6718
485.6106
629.452
667.5978
0.100059 0.404382 0.249089
321.66
376.5804
418.1897
456.4381
649.7223
670.4747
0.100059 0.404382 -0.311362
352.4461
352.4461
431.3489
431.3489
664.2173
664.2173
0.100059 0.51992 0.0
331.7238
367.3066
486.8598
538.4919
607.1481
662.2117
0.100059 0.51992 0.062272
330.913
366.923
480.3602
530.3453
616.2714
667.8459
0.100059 0.51992 0.124545
324.8757
374.9456
459.4735
513.6878
637.0684
679.7982
0.100059 0.51992 0.186817
320.5063
393.2705
427.7868
494.6485
660.112
690.3089
0.100059 0.51992 0.249089
328.9288
385.4569
423.265
472.8878
679.2019
694.7376
0.100059 0.51992 -0.311362
352.4131
352.4131
448.3615
448.3615
691.1315
691.1315
0.200117 0.346613 0.0
307.7562
352.1188
452.1131
579.6102
590.8132
593.0286
0.200117 0.346613 0.062272
301.3942
356.5528
459.6937
547.7011
595.0965
616.013
0.200117 0.346613 0.124545
292.0351
368.0855
472.3622
506.7671
602.7318
637.8548
0.200117 0.346613 0.186817
293.7495
379.9718
467.7536
476.6208
617.0044
650.5758
0.200117 0.346613 0.249089
311.9103
373.4655
448.9964
469.8874
633.9491
653.6555
0.200117 0.346613 -0.311362
342.7668
342.7668
457.0166
457.0166
647.5092
647.5092
0.200117 0.462151 0.0
368.9639
405.333
502.9559
538.7536
590.7035
637.2611
0.200117 0.462151 0.062272
355.789
411.6323
500.8803
527.7554
604.611
640.4199
0.200117 0.462151 0.124545
332.7853
419.671
476.5457
529.9737
624.3262
650.312
0.200117 0.462151 0.186817
317.269
404.9998
468.3539
530.0576
641.9485
662.0737
0.200117 0.462151 0.249089
318.191
369.5372
484.1731
520.3524
657.2173
668.5176
0.200117 0.462151 -0.311362
337.2169
337.2169
503.744
503.744
666.8372
666.8372
0.200117 0.577689 0.0
402.9013
420.8035
507.2157
530.2582
587.1849
651.5968
0.200117 0.577689 0.062272
383.4083
434.4228
480.9082
546.0374
596.9517
654.1523
0.200117 0.577689 0.124545
354.4983
440.6471
453.368
555.752
619.2668
661.45
0.200117 0.577689 0.186817
331.5197
398.9325
474.999
552.3622
643.1253
670.1836
0.200117 0.577689 0.249089
323.5013
361.3799
498.2474
539.5172
661.9155
675.1225
0.200117 0.577689 -0.311362
334.2462
334.2462
520.6179
520.6179
672.7804
672.7804
0.300176 0.51992 0.0
424.0795
480.2727
487.8664
540.5285
573.1452
638.2182
0.300176 0.51992 0.062272
407.4693
461.4997
491.3672
553.8871
588.1091
636.6152
0.300176 0.51992 0.124545
374.5508
422.8426
503.2873
576.494
613.9869
633.9315
0.300176 0.51992 0.186817
344.3339
382.3461
521.1095
586.4805
635.6492
637.2804
0.300176 0.51992 0.249089
327.2391
348.675
541.7918
578.7261
646.8022
648.7711
0.300176 0.51992 -0.311362
328.7145
328.7145
562.0834
562.0834
652.2088
652.2088
P	=	3800.43	V	=	87.77214	E	=	-655.14434747
0.0 0.0 0.0
-0.0
0.0
0.0
345.4048
345.4048
724.9307
0.0 0.0 0.062276
53.0485
53.0485
127.9241
340.8525
340.8525
718.3705
0.0 0.0 0.124551
104.5331
104.5331
250.7714
327.3252
327.3252
698.3552
0.0 0.0 0.186827
153.2814
153.2814
305.2886
305.2886
363.8962
663.9591
0.0 0.0 0.249102
198.5429
198.5429
275.6477
275.6477
463.5383
613.9375
0.0 0.0 -0.311378
239.6482
239.6482
239.6482
239.6482
547.2226
547.2226
0.0 0.115534 0.0
98.9788
103.2194
227.0517
363.389
398.6575
713.1931
0.0 0.115534 0.062276
116.7865
127.0387
251.2109
359.1998
394.0317
707.301
0.0 0.115534 0.124551
149.0362
172.7593
316.7793
346.7101
380.4436
689.3622
0.0 0.115534 0.186827
188.1407
215.5274
326.274
357.8953
401.0638
658.6487
0.0 0.115534 0.249102
227.9022
256.1678
298.7255
328.9796
483.2797
614.2228
0.0 0.115534 -0.311378
265.3936
265.3936
294.4443
294.4443
555.519
555.519
0.0 0.231068 0.0
191.5219
192.0567
403.6407
415.005
507.1148
679.5684
0.0 0.231068 0.062276
200.0632
203.7325
400.0768
426.6277
500.8689
676.7701
0.0 0.231068 0.124551
222.666
234.438
389.387
455.4495
485.0811
667.8455
0.0 0.231068 0.186827
253.1994
276.0186
371.7372
448.1537
506.1875
651.5285
0.0 0.231068 0.249102
286.3877
322.0302
347.762
411.4712
550.9396
626.5625
0.0 0.231068 -0.311378
318.7111
318.7111
368.249
368.249
592.5662
592.5662
0.0 0.346602 0.0
253.7556
274.6678
443.6419
541.7026
605.7819
629.6493
0.0 0.346602 0.062276
260.7992
277.3307
440.4125
547.0769
585.3808
645.4022
0.0 0.346602 0.124551
279.9846
288.1455
430.7364
533.0752
582.1287
661.2928
0.0 0.346602 0.186827
306.8744
311.384
414.7554
490.3353
607.1023
668.5126
0.0 0.346602 0.249102
336.8881
347.356
392.9699
441.6767
633.2295
666.0
0.0 0.346602 -0.311378
366.4367
366.4367
392.4448
392.4448
653.8366
653.8366
0.0 0.462136 0.0
287.4418
341.4808
470.4927
575.9105
609.7546
665.9541
0.0 0.462136 0.062276
293.8493
338.4213
467.283
559.0681
620.0716
674.3186
0.0 0.462136 0.124551
311.6201
334.3395
457.7369
523.4632
641.5548
689.5549
0.0 0.462136 0.186827
337.1527
338.9426
442.1086
480.17
665.628
701.111
0.0 0.462136 0.249102
358.2738
366.1991
420.8905
434.4974
686.2774
704.9629
0.0 0.462136 -0.311378
391.8123
391.8123
395.0203
395.0203
699.9295
699.9295
0.0 -0.57767 0.0
297.5012
372.5156
479.7405
547.7547
630.7297
684.8922
0.0 -0.57767 0.062276
303.7122
366.7867
476.4897
536.1816
639.4163
691.0197
0.0 -0.57767 0.124551
321.0725
355.9356
466.8583
506.9255
660.2408
703.7006
0.0 -0.57767 0.186827
346.2868
351.9061
451.167
468.3631
683.7646
714.6113
0.0 -0.57767 0.249102
362.8077
375.218
427.026
429.9252
703.2722
719.1436
0.0 -0.57767 -0.311378
389.5003
389.5003
404.0393
404.0393
715.448
715.448
0.100055 0.173301 0.0
168.1453
187.5878
342.3055
419.8728
468.2467
690.4688
0.100055 0.173301 0.062276
180.9821
195.9564
353.9395
420.0625
462.6421
686.357
0.100055 0.173301 0.124551
212.9442
218.0718
372.3026
431.9491
446.2764
673.7447
0.100055 0.173301 0.186827
247.7746
253.2467
367.8126
420.5063
473.9932
651.9009
0.100055 0.173301 0.249102
279.2677
292.976
351.1521
387.7567
527.4811
620.0181
0.100055 0.173301 -0.311378
304.9152
304.9152
354.2415
354.2415
577.972
577.972
0.100055 0.288835 0.0
247.75
267.393
418.6067
518.9082
559.7961
648.3209
0.100055 0.288835 0.062276
248.7076
275.3795
421.9822
521.1834
550.83
651.4185
0.100055 0.288835 0.124551
258.1509
294.5979
425.0106
510.8633
548.4355
655.6547
0.100055 0.288835 0.186827
281.1317
319.5349
418.8332
475.7732
571.9843
654.5389
0.100055 0.288835 0.249102
314.3045
343.5815
405.1904
436.0628
601.0772
645.1296
0.100055 0.288835 -0.311378
344.9179
344.9179
405.3935
405.3935
626.8387
626.8387
0.100055 0.404369 0.0
316.1784
320.4043
469.7459
585.6877
594.7591
636.8809
0.100055 0.404369 0.062276
308.2102
330.7745
469.131
565.0786
602.6012
649.6943
0.100055 0.404369 0.124551
302.2825
348.3804
462.9757
529.6953
619.3778
668.0759
0.100055 0.404369 0.186827
307.3642
370.2273
445.3805
494.2151
641.253
680.0465
0.100055 0.404369 0.249102
327.3953
383.1559
425.6374
464.5569
661.9517
683.0688
0.100055 0.404369 -0.311378
358.6223
358.6223
439.0477
439.0477
676.7344
676.7344
0.100055 0.519903 0.0
337.869
373.5877
495.5441
547.9055
618.1001
674.5431
0.100055 0.519903 0.062276
336.9276
373.3474
488.8757
539.7019
627.4133
680.2616
0.100055 0.519903 0.124551
330.6982
381.6747
467.5432
522.8947
648.6627
692.436
0.100055 0.519903 0.186827
326.3172
400.3257
435.3276
503.5836
672.2452
703.1846
0.100055 0.519903 0.249102
334.9097
392.2922
430.9061
481.4522
691.8098
707.7315
0.100055 0.519903 -0.311378
358.7521
358.7521
456.4797
456.4797
704.0419
704.0419
0.200111 0.346602 0.0
313.2069
358.2929
460.0601
589.8518
601.4052
604.3334
0.200111 0.346602 0.062276
306.7795
362.7855
467.7677
557.3343
606.4164
627.1491
0.200111 0.346602 0.124551
297.3176
374.4771
480.6512
515.6422
614.1671
649.5658
0.200111 0.346602 0.186827
299.0401
386.5096
475.9868
484.9823
628.7257
662.7018
0.200111 0.346602 0.249102
317.4153
379.8426
456.9771
478.1547
646.0194
665.9888
0.200111 0.346602 -0.311378
348.6901
348.6901
465.1068
465.1068
659.817
659.817
0.200111 0.462136 0.0
375.319
412.512
511.7098
548.1471
601.2292
649.1847
0.200111 0.462136 0.062276
361.9696
418.8758
509.562
537.0129
615.4868
652.3339
0.200111 0.462136 0.124551
338.6713
426.9462
484.8871
539.3365
635.7631
662.3105
0.200111 0.462136 0.186827
322.9813
411.9652
476.7198
539.5015
653.8613
674.3323
0.200111 0.462136 0.249102
323.9467
376.0051
492.8985
529.7127
669.5143
680.9999
0.200111 0.462136 -0.311378
343.2424
343.2424
512.8538
512.8538
679.3443
679.3443
0.200111 0.57767 0.0
409.7573
428.3218
515.952
539.4701
597.6443
663.6962
0.200111 0.57767 0.062276
389.9933
442.1424
489.1409
555.6464
607.5882
666.2601
0.200111 0.57767 0.124551
360.6791
448.2031
461.4264
565.6886
630.3668
673.6547
0.200111 0.57767 0.186827
337.4449
405.8685
483.5079
562.3661
654.8027
682.5899
0.200111 0.57767 0.249102
329.3887
367.8066
507.3075
549.3926
674.1029
687.6765
0.200111 0.57767 -0.311378
340.3117
340.3117
530.1749
530.1749
685.2778
685.2778
0.300166 0.519903 0.0
431.2942
488.8639
496.206
549.8421
583.09
650.1079
0.300166 0.519903 0.062276
414.4212
469.3706
500.132
563.4878
598.3708
648.4448
0.300166 0.519903 0.124551
381.0235
430.0498
512.2741
586.6428
624.8528
645.6599
0.300166 0.519903 0.186827
350.4326
388.9855
530.5137
597.0734
647.0866
649.0141
0.300166 0.519903 0.249102
333.1806
354.9054
551.7704
589.4259
658.6989
660.6064
0.300166 0.519903 -0.311378
334.7104
334.7104
572.5551
572.5551
664.1942
664.1942
P	=	3999.95	V	=	86.66628	E	=	-655.11503882
0.0 0.0 0.0
-0.0
0.0
0.0
351.3761
351.3761
738.157
0.0 0.0 0.062279
53.977
53.977
130.1705
346.7444
346.7444
731.4347
0.0 0.0 0.124558
106.3284
106.3284
255.2026
332.9722
332.9722
710.9602
0.0 0.0 0.186836
155.8625
155.8625
310.5202
310.5202
370.3671
675.8581
0.0 0.0 0.249115
201.8537
201.8537
280.3161
280.3161
471.8096
624.9019
0.0 0.0 -0.311394
243.659
243.659
243.659
243.659
556.9921
556.9921
0.0 0.115529 0.0
100.7054
104.9936
231.1475
369.6163
405.3951
726.136
0.0 0.115529 0.062279
118.799
129.0736
255.7893
365.3507
400.6745
720.1005
0.0 0.115529 0.124558
151.5897
175.4798
322.5359
352.6284
386.8125
701.7638
0.0 0.115529 0.186836
191.3177
218.9839
331.8054
363.8134
408.3151
670.4536
0.0 0.115529 0.249115
231.7072
260.3051
303.7423
334.3559
492.0049
625.2433
0.0 0.115529 -0.311394
269.8189
269.8189
299.2179
299.2179
565.5232
565.5232
0.0 0.231058 0.0
194.8489
195.3235
410.4502
422.4258
515.5424
691.695
0.0 0.231058 0.062279
203.5311
207.1057
406.8146
434.2455
509.159
688.8385
0.0 0.231058 0.124558
226.4942
238.225
395.914
463.3967
493.1843
679.7579
0.0 0.231058 0.186836
257.4927
280.4964
377.9298
455.2959
515.2958
663.1986
0.0 0.231058 0.249115
291.177
327.257
353.5278
418.0048
560.8894
637.8575
0.0 0.231058 -0.311394
323.9981
323.9981
374.1555
374.1555
603.2855
603.2855
0.0 0.346587 0.0
258.2058
279.18
451.0556
551.11
616.0469
640.5748
0.0 0.346587 0.062279
265.3535
281.8716
447.7554
556.4143
595.3943
656.6286
0.0 0.346587 0.124558
284.8176
292.8762
437.8781
541.6756
592.4583
672.8838
0.0 0.346587 0.186836
312.0886
316.5711
421.5939
498.1992
617.8608
680.3205
0.0 0.346587 0.249115
342.5234
353.1764
399.4378
448.8308
644.4748
677.8324
0.0 0.346587 -0.311394
372.4966
372.4966
398.9318
398.9318
665.4728
665.4728
0.0 0.462117 0.0
292.5083
346.9243
478.3417
585.5996
620.0411
677.5365
0.0 0.462117 0.062279
298.9998
343.8595
475.0584
568.3748
630.6197
686.0628
0.0 0.462117 0.124558
317.0053
339.8305
465.3072
532.0863
652.5598
701.6183
0.0 0.462117 0.186836
342.8781
344.6535
449.3788
488.0714
677.1501
713.4409
0.0 0.462117 0.249115
364.385
372.3177
427.8029
441.7267
698.2738
717.3969
0.0 0.462117 -0.311394
398.443
398.443
401.543
401.543
712.2515
712.2515
0.0 -0.577646 0.0
302.7521
378.3853
487.7483
556.8379
641.2623
696.9186
0.0 -0.577646 0.062279
309.0402
372.6309
484.4221
545.0662
650.1193
703.1632
0.0 -0.577646 0.124558
326.6203
361.7664
474.5814
515.3197
671.3835
716.0963
0.0 -0.577646 0.186836
352.1628
357.8456
458.5863
476.1485
695.4602
727.2298
0.0 -0.577646 0.249115
369.024
381.4824
434.204
436.9848
715.4786
731.8382
0.0 -0.577646 -0.311394
396.1414
396.1414
410.7077
410.7077
728.0072
728.0072
0.100051 0.173294 0.0
171.0316
190.7349
348.4064
427.1246
476.0089
702.8601
0.100051 0.173294 0.062279
183.9803
199.2449
360.1971
427.3663
470.2756
698.6557
0.100051 0.173294 0.124558
216.379
221.7257
378.643
439.673
453.5496
685.7951
0.100051 0.173294 0.186836
251.9059
257.3612
373.9275
427.2615
482.5697
663.5864
0.100051 0.173294 0.249115
283.8999
297.7601
356.918
393.9373
537.0442
631.1994
0.100051 0.173294 -0.311394
309.9558
309.9558
359.9184
359.9184
588.4463
588.4463
0.100051 0.288823 0.0
251.8847
271.9089
425.6502
528.0189
569.1669
659.6915
0.100051 0.288823 0.062279
252.8322
280.0067
429.0368
530.2077
560.1422
662.8672
0.100051 0.288823 0.124558
262.4166
299.5078
432.0333
519.1006
558.2433
667.2387
0.100051 0.288823 0.186836
285.8127
324.8271
425.7072
483.3441
582.2338
666.1803
0.100051 0.288823 0.249115
319.5246
349.238
411.8239
443.0712
611.8368
656.6651
0.100051 0.288823 -0.311394
350.5727
350.5727
412.0244
412.0244
638.0667
638.0667
0.100051 0.404352 0.0
321.5896
325.5884
477.4921
595.6502
604.8708
647.905
0.100051 0.404352 0.062279
313.325
336.3042
476.8429
574.4089
613.1517
660.9293
0.100051 0.404352 0.124558
307.3102
354.2204
470.5322
538.3612
630.2694
679.7
0.100051 0.404352 0.186836
312.54
376.389
452.6026
502.338
652.5213
691.961
0.100051 0.404352 0.249115
332.9179
389.4399
432.6364
472.2365
673.5915
695.0869
0.100051 0.404352 -0.311394
364.5703
364.5703
446.3158
446.3158
688.6499
688.6499
0.100051 0.519881 0.0
343.6944
379.5144
503.7067
556.9891
628.4281
686.374
0.100051 0.519881 0.062279
342.6474
379.4112
496.8765
548.6819
637.9482
692.1929
0.100051 0.519881 0.124558
336.2221
388.0729
475.1131
531.6549
659.6582
704.5927
0.100051 0.519881 0.186836
331.8276
407.0286
442.4014
512.0089
683.762
715.541
0.100051 0.519881 0.249115
340.6019
398.7486
438.0713
489.4514
703.7843
720.1483
0.100051 0.519881 -0.311394
364.7773
364.7773
464.0372
464.0372
716.3305
716.3305
0.200102 0.346587 0.0
318.3202
364.2352
467.6606
599.4517
611.668
615.2214
0.200102 0.346587 0.062279
311.8011
368.7886
475.4613
566.4244
617.3494
637.8385
0.200102 0.346587 0.124558
302.2344
380.6285
488.5106
523.9702
625.2163
660.7919
0.200102 0.346587 0.186836
304.0588
392.7788
483.7027
492.916
639.9405
674.2728
0.200102 0.346587 0.249115
322.7493
385.9689
464.4816
485.995
657.4438
677.6817
0.200102 0.346587 -0.311394
354.4375
354.4375
472.7448
472.7448
671.4347
671.4347
0.200102 0.462117 0.0
381.3377
419.4101
520.0377
557.2312
611.1344
660.6856
0.200102 0.462117 0.062279
367.8263
425.8589
517.8186
545.8813
625.8377
663.8423
0.200102 0.462117 0.124558
344.2551
433.961
492.8155
548.2581
646.7274
673.8686
0.200102 0.462117 0.186836
328.4132
418.5983
484.6458
548.4402
665.2085
686.0353
0.200102 0.462117 0.249115
329.4234
382.1448
501.0133
538.4426
681.104
692.794
0.200102 0.462117 -0.311394
348.9669
348.9669
521.2603
521.2603
691.093
691.093
0.200102 0.577646 0.0
416.288
435.5335
524.3838
548.1839
607.5489
675.3722
0.200102 0.577646 0.062279
396.2948
449.5649
497.0217
564.819
617.7043
677.9649
0.200102 0.577646 0.124558
366.6107
455.4153
469.1999
575.183
640.9652
685.4381
0.200102 0.577646 0.186836
343.111
412.4611
491.5791
571.8069
665.9065
694.4577
0.200102 0.577646 0.249115
334.9606
373.871
515.6547
558.496
685.6014
699.5501
0.200102 0.577646 -0.311394
346.0143
346.0143
538.865
538.865
697.0315
697.0315
0.300154 0.519881 0.0
438.201
497.0588
504.2531
558.7698
592.5179
661.609
0.300154 0.519881 0.062279
421.0924
476.9602
508.545
572.7119
608.1723
659.9132
0.300154 0.519881 0.124558
387.2635
437.004
520.938
596.3966
635.2861
656.9988
0.300154 0.519881 0.186836
356.2846
395.3542
539.3769
607.104
658.0176
660.1963
0.300154 0.519881 0.249115
338.7857
360.7886
560.8281
599.213
669.9131
671.8065
0.300154 0.519881 -0.311394
340.3123
340.3123
581.9225
581.9225
675.4637
675.4637
P	=	4999.99	V	=	81.87814	E	=	-654.96918765
0.0 0.0 0.0
-0.0
0.0
0.0
379.5642
379.5642
799.9266
0.0 0.0 0.062294
58.2528
58.2528
140.7639
374.606
374.606
792.4665
0.0 0.0 0.124589
114.7591
114.7591
275.8684
359.8237
359.8237
769.8198
0.0 0.0 0.186883
168.2585
168.2585
335.6298
335.6298
400.1979
731.218
0.0 0.0 0.249177
217.9954
217.9954
302.9703
302.9703
509.707
675.5583
0.0 0.0 -0.311471
263.2659
263.2659
263.2659
263.2659
601.8237
601.8237
0.0 0.115523 0.0
108.8449
113.2524
250.0631
398.9892
437.0409
786.5702
0.0 0.115523 0.062294
128.1199
138.9112
276.988
394.3997
431.9634
779.9204
0.0 0.115523 0.124589
163.462
188.4049
349.3856
380.6955
417.0112
759.7679
0.0 0.115523 0.186883
206.3335
235.1335
358.2255
392.0513
442.014
725.5115
0.0 0.115523 0.249177
249.9762
279.6993
327.894
360.0201
532.2611
676.3105
0.0 0.115523 -0.311471
291.1973
291.1973
321.8388
321.8388
611.6305
611.6305
0.0 0.231046 0.0
210.3306
210.7253
442.634
456.8343
555.0625
748.31
0.0 0.231046 0.062294
219.6133
223.3053
438.6805
469.6598
548.1699
745.2907
0.0 0.231046 0.124589
244.2172
256.4561
426.8508
500.6197
531.5139
735.6331
0.0 0.231046 0.186883
277.5267
301.3965
407.3883
489.3059
557.9059
717.8821
0.0 0.231046 0.249177
313.8022
351.185
381.0385
448.7605
607.3199
690.563
0.0 0.231046 -0.311471
349.1859
349.1859
401.4197
401.4197
653.1932
653.1932
0.0 0.346569 0.0
279.0576
300.4979
486.2799
595.2178
664.2609
691.6028
0.0 0.346569 0.062294
286.6347
303.5885
482.6626
600.377
642.4377
709.2126
0.0 0.346569 0.124589
307.3293
315.7107
471.8783
582.7725
640.8149
727.3568
0.0 0.346569 0.186883
336.4471
341.1351
454.1997
535.7445
668.3549
735.8484
0.0 0.346569 0.249177
369.062
380.1214
430.2675
482.5311
697.2137
733.3628
0.0 0.346569 -0.311471
401.262
401.262
428.9729
428.9729
720.0027
720.0027
0.0 0.462093 0.0
316.5213
372.7596
515.7829
630.849
668.9994
731.9243
0.0 0.462093 0.062294
323.3563
369.8446
512.1765
612.1821
680.6712
741.2225
0.0 0.462093 0.124589
342.3751
366.2627
501.5032
573.102
704.6674
758.356
0.0 0.462093 0.186883
369.8386
371.9303
484.1676
525.8057
731.5723
771.4708
0.0 0.462093 0.249177
393.173
401.2446
460.8257
476.0353
754.7707
775.8723
0.0 0.462093 -0.311471
429.6226
429.6226
432.5618
432.5618
770.1829
770.1829
0.0 -0.577616 0.0
327.7845
406.3467
525.9941
599.2031
691.7379
753.3739
0.0 -0.577616 0.062294
334.388
400.5909
522.3407
586.7406
701.319
760.1752
0.0 -0.577616 0.124589
352.9093
389.7968
511.565
555.13
724.4682
774.3486
0.0 -0.577616 0.186883
379.957
386.2642
494.1409
513.3243
750.9092
786.5822
0.0 -0.577616 0.249177
398.5095
411.1772
468.4155
470.7514
773.0939
791.5562
0.0 -0.577616 -0.311471
427.6145
427.6145
442.4656
442.4656
787.1291
787.1291
0.100046 0.173285 0.0
184.63
205.3388
376.7964
461.0904
512.4534
760.7109
0.100046 0.173285 0.062294
198.401
214.4808
389.4268
461.5497
506.2439
756.1706
0.100046 0.173285 0.124589
232.871
238.6623
408.5918
475.7495
488.0829
742.2764
0.100046 0.173285 0.186883
271.1888
276.5382
402.9336
459.463
522.6599
718.2732
0.100046 0.173285 0.249177
305.7364
319.8965
384.183
423.1844
581.5837
683.2733
0.100046 0.173285 -0.311471
333.8189
333.8189
386.4054
386.4054
637.0952
637.0952
0.100046 0.288808 0.0
271.3636
292.8665
458.8643
570.545
613.2544
712.7938
0.100046 0.288808 0.062294
272.5236
301.4853
462.38
572.4227
604.0072
716.437
0.100046 0.288808 0.124589
282.9329
322.3183
465.3413
558.3904
604.0321
721.6052
0.100046 0.288808 0.186883
307.8758
349.4319
458.3068
519.5076
630.2475
720.8486
0.100046 0.288808 0.249177
343.7497
375.5983
443.136
476.1064
662.3053
710.7612
0.100046 0.288808 -0.311471
376.9811
376.9811
442.9733
442.9733
690.6932
690.6932
0.100046 0.404331 0.0
346.8744
350.0649
514.2612
642.7424
652.1237
699.6517
0.100046 0.404331 0.062294
337.5007
362.2724
513.4876
618.6123
662.5675
713.6498
0.100046 0.404331 0.124589
331.3378
381.5466
506.5334
579.6358
681.3603
734.3195
0.100046 0.404331 0.186883
337.1491
405.1908
487.1347
540.9365
705.5108
748.0248
0.100046 0.404331 0.249177
358.8716
418.983
465.8748
508.5178
728.4022
751.6678
0.100046 0.404331 -0.311471
392.5233
392.5233
480.5881
480.5881
744.7606
744.7606
0.100046 0.519854 0.0
371.1202
407.6134
542.5366
599.4048
677.7566
741.8586
0.100046 0.519854 0.062294
369.5538
408.2168
534.9612
590.8218
688.107
748.1268
0.100046 0.519854 0.124589
362.4068
418.2952
511.288
573.0194
711.7804
761.6195
0.100046 0.519854 0.186883
358.0264
438.6312
476.3203
551.9437
738.2197
773.6241
0.100046 0.519854 0.249177
367.5909
429.5742
472.0694
527.492
760.3368
778.6382
0.100046 0.519854 -0.311471
393.3979
393.3979
500.001
500.001
774.3043
774.3043
0.200092 0.346569 0.0
342.3726
391.7822
503.5408
645.1007
659.6432
665.941
0.200092 0.346569 0.062294
335.6392
396.5793
511.8238
609.6145
668.2292
688.013
0.200092 0.346569 0.124589
325.8173
409.0766
525.7073
563.7944
676.6888
713.5185
0.200092 0.346569 0.186883
327.9365
421.8965
520.5926
530.3709
692.513
728.72
0.200092 0.346569 0.249177
347.758
414.6816
499.959
522.9004
711.3223
732.83
0.200092 0.346569 -0.311471
381.3219
381.3219
508.681
508.681
726.3118
726.3118
0.200092 0.462093 0.0
409.6584
451.5735
559.3424
599.7285
658.2372
714.4871
0.200092 0.462093 0.062294
395.462
458.3197
556.8245
587.6448
674.6259
717.6323
0.200092 0.462093 0.124589
370.7219
466.5187
530.4526
590.2595
698.0906
727.9506
0.200092 0.462093 0.186883
354.1953
449.8769
522.0495
590.5758
718.5346
741.0252
0.200092 0.462093 0.249177
355.4115
411.297
539.5153
579.841
735.8979
748.5046
0.200092 0.462093 -0.311471
376.1513
376.1513
561.3035
561.3035
746.7539
746.7539
0.200092 0.577616 0.0
447.0687
469.2777
563.8009
589.3186
654.6442
730.0454
0.200092 0.577616 0.062294
425.9212
484.282
534.1078
607.8587
665.5842
732.6745
0.200092 0.577616 0.124589
394.5129
489.5197
505.449
619.6657
690.8416
740.4686
0.200092 0.577616 0.186883
369.8612
443.796
529.4927
616.2886
718.1791
750.1218
0.200092 0.577616 0.249177
361.4626
402.8465
555.4558
601.9018
739.9444
755.5918
0.200092 0.577616 -0.311471
373.2922
373.2922
580.5966
580.5966
752.6829
752.6829
0.300138 0.519854 0.0
470.6167
535.6317
541.9418
600.6262
637.0381
715.4546
0.300138 0.519854 0.062294
452.4096
512.4791
548.063
615.8281
654.1522
713.4726
0.300138 0.519854 0.124589
416.5388
469.6087
561.3892
641.8933
683.9671
709.8785
0.300138 0.519854 0.186883
383.8573
425.3669
581.1451
654.2347
709.1246
712.637
0.300138 0.519854 0.249177
365.501
388.8153
604.3542
646.0564
722.8048
724.4934
0.300138 0.519854 -0.311471
367.1874
367.1874
627.3015
627.3015
728.6963
728.6963
P	=	5999.97	V	=	78.01778	E	=	-654.82526079
0.0 0.0 0.0
-0.0
-0.0
0.0
403.7581
403.7581
854.9573
0.0 0.0 0.0623
62.0807
62.0807
150.1077
398.5412
398.5412
846.7979
0.0 0.0 0.1246
122.2081
122.2081
294.1276
382.9285
382.9285
822.1234
0.0 0.0 0.1869
179.0486
179.0486
357.2424
357.2424
426.6021
780.3277
0.0 0.0 0.249201
231.9005
231.9005
322.4391
322.4391
543.2865
720.4582
0.0 0.0 -0.311501
280.0975
280.0975
280.0975
280.0975
641.5562
641.5562
0.0 0.115522 0.0
116.0566
120.3714
266.7921
424.3322
464.3628
840.3479
0.0 0.115522 0.0623
136.2122
147.5573
295.7382
419.4759
458.9891
833.1215
0.0 0.115522 0.1246
173.8127
199.7179
373.1065
404.942
443.1247
811.2845
0.0 0.115522 0.1869
219.3638
249.2189
381.0394
416.4633
471.8084
774.3414
0.0 0.115522 0.249201
265.7382
296.54
348.7122
382.217
567.8749
721.5542
0.0 0.115522 -0.311501
309.603
309.603
341.424
341.424
652.4506
652.4506
0.0 0.231044 0.0
223.7035
224.2116
470.6404
487.1696
589.5599
798.5553
0.0 0.231044 0.0623
233.5199
237.4766
466.4125
500.8317
582.2471
795.3828
0.0 0.231044 0.1246
259.5593
272.3952
453.7686
533.0622
565.2875
785.1789
0.0 0.231044 0.1869
294.8576
319.6923
432.9875
518.94
595.4581
766.3031
0.0 0.231044 0.249201
333.3579
372.1601
404.8888
475.6476
648.2183
737.1411
0.0 0.231044 -0.311501
370.9729
370.9729
425.3091
425.3091
697.2107
697.2107
0.0 0.346566 0.0
297.0448
318.9564
517.1148
634.0002
706.7327
736.7686
0.0 0.346566 0.0623
304.9959
322.4042
513.2225
638.8868
684.0467
755.6962
0.0 0.346566 0.1246
326.7599
335.5485
501.6376
618.8241
683.4639
775.4906
0.0 0.346566 0.1869
357.4878
362.5912
482.6978
568.782
712.7553
784.8678
0.0 0.346566 0.249201
392.0283
403.7984
457.1335
512.2474
743.5604
782.3031
0.0 0.346566 -0.311501
426.2354
426.2354
455.4618
455.4618
767.974
767.974
0.0 0.462088 0.0
337.1538
395.0223
548.6758
670.8113
712.1804
779.9037
0.0 0.462088 0.0623
344.2984
392.2816
544.7912
650.822
724.7877
789.9182
0.0 0.462088 0.1246
364.2259
389.2111
533.3061
609.2452
750.5012
808.4757
0.0 0.462088 0.1869
393.1156
395.7878
514.69
559.0765
779.3607
822.6984
0.0 0.462088 0.249201
418.5169
426.3059
489.7003
506.3264
804.3755
827.4
0.0 0.462088 -0.311501
457.1564
457.1564
459.5578
459.5578
821.121
821.121
0.0 -0.577609 0.0
349.2464
430.4323
559.6371
636.5799
736.3688
803.1419
0.0 -0.577609 0.0623
356.144
424.7552
555.7025
623.4557
746.5207
810.483
0.0 -0.577609 0.1246
375.5319
414.2091
544.1033
590.136
771.1923
825.8057
0.0 -0.577609 0.1869
403.9529
411.2172
525.3759
546.015
799.6088
838.9851
0.0 -0.577609 0.249201
424.5326
436.9174
498.561
500.3106
823.6822
844.1837
0.0 -0.577609 -0.311501
455.4084
455.4084
470.1296
470.1296
839.1149
839.1149
0.100045 0.173283 0.0
196.579
218.0578
401.51
490.9872
544.0673
812.0941
0.100045 0.173283 0.0623
211.0309
227.7694
414.8124
491.697
537.4501
807.243
0.100045 0.173283 0.1246
247.2493
253.4449
434.5053
507.6507
518.0655
792.393
0.100045 0.173283 0.1869
287.9683
293.2206
428.0903
487.4642
558.0235
766.7352
0.100045 0.173283 0.249201
324.6471
339.0899
407.9032
448.6801
620.8634
729.3412
0.100045 0.173283 -0.311501
354.3993
354.3993
409.5711
409.5711
680.0554
680.0554
0.100045 0.288805 0.0
288.2965
311.1003
487.7099
607.9846
652.0185
759.8498
0.100045 0.288805 0.0623
289.6142
320.1961
491.3322
609.3909
642.7681
763.894
0.100045 0.288805 0.1246
300.7063
342.2139
494.2802
592.735
644.5042
769.7328
0.100045 0.288805 0.1869
327.0055
370.8792
486.673
551.2404
672.5264
769.1749
0.100045 0.288805 0.249201
364.8002
398.5187
470.47
505.1635
706.6972
758.4846
0.100045 0.288805 -0.311501
399.9062
399.9062
470.1582
470.1582
737.0276
737.0276
0.100045 0.404327 0.0
368.7574
371.2132
546.4121
684.1394
693.9156
745.3701
0.100045 0.404327 0.0623
358.3687
384.7988
545.5257
657.5457
706.1714
760.2206
0.100045 0.404327 0.1246
352.0995
405.3085
538.0229
616.0041
726.3497
782.5681
0.100045 0.404327 0.1869
358.4945
430.28
517.4094
574.9214
752.074
797.5129
0.100045 0.404327 0.249201
381.5181
444.7918
495.0555
540.3742
776.5423
801.5254
0.100045 0.404327 -0.311501
417.0137
417.0137
510.6237
510.6237
794.103
794.103
0.100045 0.519848 0.0
394.761
431.888
576.6197
636.8593
721.2774
790.8041
0.100045 0.519848 0.0623
392.7434
433.188
568.3996
628.0013
732.3107
797.5004
0.100045 0.519848 0.1246
385.0803
444.5766
543.0897
609.4495
757.6093
811.9915
0.100045 0.519848 0.1869
380.8623
466.181
506.1722
587.0594
786.0225
824.8961
0.100045 0.519848 0.249201
391.2522
456.6918
501.8024
560.8802
809.9754
830.1707
0.100045 0.519848 -0.311501
418.5732
418.5732
531.4978
531.4978
825.2666
825.2666
0.20009 0.346566 0.0
363.1963
415.834
534.6649
685.1002
702.1122
710.8772
0.20009 0.346566 0.0623
356.2753
420.8569
543.3517
647.6074
713.2677
732.3152
0.20009 0.346566 0.1246
346.2261
433.9427
557.967
598.9145
722.1339
760.0962
0.20009 0.346566 0.1869
348.6366
447.3362
553.213
562.9235
738.7864
776.7909
0.20009 0.346566 0.249201
369.5567
439.8229
531.2297
555.0765
758.6774
781.4343
0.20009 0.346566 -0.311501
404.8777
404.8777
540.1486
540.1486
774.582
774.582
0.20009 0.462088 0.0
434.2371
479.5498
593.6412
637.3084
699.6189
762.034
0.20009 0.462088 0.0623
419.4732
486.5902
590.9698
624.4198
717.5422
765.168
0.20009 0.462088 0.1246
393.7708
494.9771
563.6167
627.0036
743.2653
775.7309
0.20009 0.462088 0.1869
376.715
477.4591
554.9036
627.4119
765.3722
789.5515
0.20009 0.462088 0.249201
378.2167
437.0868
573.2589
616.0477
783.9951
797.5679
0.20009 0.462088 -0.311501
400.1362
400.1362
596.3535
596.3535
795.6666
795.6666
0.20009 0.577609 0.0
473.8678
498.5653
598.6164
625.3522
696.063
778.2732
0.20009 0.577609 0.0623
451.7447
514.4801
566.793
645.6799
707.6572
780.9415
0.20009 0.577609 0.1246
418.9443
519.627
537.0641
658.7686
734.606
789.0242
0.20009 0.577609 0.1869
393.3897
471.5277
562.6275
655.3485
764.0087
799.2001
0.20009 0.577609 0.249201
384.8493
428.5139
590.281
639.9607
787.6001
804.9117
0.20009 0.577609 -0.311501
397.4241
397.4241
617.1439
617.1439
801.5547
801.5547
0.300135 0.519848 0.0
498.9919
569.2801
575.2003
637.2153
676.1045
762.9289
0.300135 0.519848 0.0623
479.8738
543.7513
582.6712
653.5187
694.5522
760.6733
0.300135 0.519848 0.1246
442.3132
498.4571
596.8215
681.671
726.8035
756.4257
0.300135 0.519848 0.1869
408.219
452.0325
617.7595
695.4662
754.0908
758.7104
0.300135 0.519848 0.249201
389.1615
413.7435
642.5111
687.0762
769.1969
770.782
0.300135 0.519848 -0.311501
391.0462
391.0462
667.0631
667.0631
775.3959
775.3959
P	=	6999.88	V	=	74.79837	E	=	-654.68329998
0.0 0.0 0.0
-0.0
0.0
0.0
425.2431
425.2431
904.8101
0.0 0.0 0.062301
64.9896
64.9896
158.52
419.7923
419.7923
895.9868
0.0 0.0 0.124603
128.0816
128.0816
310.6406
403.441
403.441
869.4282
0.0 0.0 0.186904
187.9537
187.9537
376.4369
376.4369
450.5878
824.7546
0.0 0.0 0.249206
243.8311
243.8311
339.7021
339.7021
573.8515
761.1654
0.0 0.0 -0.311507
294.8831
294.8831
294.8831
294.8831
677.681
677.681
0.0 0.115522 0.0
122.4686
126.5569
281.8007
446.8201
488.5887
889.0119
0.0 0.115522 0.062301
143.1168
155.2073
312.5382
441.7205
482.9521
881.2525
0.0 0.115522 0.124603
182.532
209.6104
394.4332
426.4393
466.2807
857.8827
0.0 0.115522 0.186904
230.4547
261.5021
401.2568
438.1312
498.7333
818.5416
0.0 0.115522 0.249206
279.3987
311.317
367.1262
401.897
600.1899
762.578
0.0 0.115522 -0.311507
325.7764
325.7764
358.727
358.727
689.5156
689.5156
0.0 0.231044 0.0
235.4782
236.2405
495.4744
514.4666
620.166
843.9032
0.0 0.231044 0.062301
245.746
250.1596
490.9936
528.8744
612.4817
840.6177
0.0 0.231044 0.124603
273.0202
286.732
477.6055
562.1154
595.4095
829.9755
0.0 0.231044 0.186904
310.0686
336.1685
455.6306
545.3163
629.2293
810.125
0.0 0.231044 0.249206
350.5596
391.0015
425.9573
499.6148
685.1086
779.2946
0.0 0.231044 -0.311507
390.1841
390.1841
446.6814
446.6814
736.9995
736.9995
0.0 0.346566 0.0
313.1779
335.4952
544.4698
668.8949
744.7033
777.4213
0.0 0.346566 0.062301
321.4656
339.3224
540.3207
673.4477
721.3731
797.5178
0.0 0.346566 0.124603
344.1786
353.5057
527.9988
651.0829
721.8512
818.8466
0.0 0.346566 0.186904
376.3071
382.0918
507.9253
598.4009
752.7406
829.0579
0.0 0.346566 0.249206
412.4955
425.3053
480.9319
539.0024
785.3131
826.4278
0.0 0.346566 -0.311507
448.4104
448.4104
479.43
479.43
811.2105
811.2105
0.0 0.462088 0.0
355.9795
415.0597
577.8812
706.7094
751.0485
823.1
0.0 0.462088 0.062301
363.3985
412.5237
573.7306
685.5307
764.4807
833.7592
0.0 0.462088 0.124603
384.1179
410.0182
561.4924
641.7451
791.7007
853.6194
0.0 0.462088 0.186904
414.2169
417.518
541.7456
589.0882
822.3248
868.8774
0.0 0.462088 0.249206
441.6471
448.8785
515.3711
533.7868
849.0341
873.8729
0.0 0.462088 -0.311507
482.2375
482.2375
483.6986
483.6986
867.0425
867.0425
0.0 -0.57761 0.0
368.9695
452.1609
589.52
670.1184
776.5737
848.0541
0.0 -0.57761 0.062301
376.1225
446.5922
585.3131
656.426
787.1792
855.8729
0.0 -0.57761 0.124603
396.2531
436.3508
572.9465
621.642
813.1304
872.2329
0.0 -0.57761 0.186904
425.8225
433.9425
553.0775
575.5581
843.3279
886.2906
0.0 -0.57761 0.249206
448.3068
460.2026
525.9581
526.6307
869.2015
891.7034
0.0 -0.57761 -0.311507
480.7851
480.7851
494.942
494.942
886.005
886.005
0.100045 0.173283 0.0
207.2252
229.123
423.7469
517.5554
572.1087
858.5054
0.100045 0.173283 0.062301
222.3202
239.2985
437.6075
518.5119
565.1385
853.3899
0.100045 0.173283 0.124603
260.1572
266.2316
457.6038
536.1868
544.6933
837.7185
0.100045 0.173283 0.186904
302.5135
308.2081
450.3635
512.3727
589.8473
810.6116
0.100045 0.173283 0.249206
341.1424
356.2721
428.8488
471.4058
656.343
771.0732
0.100045 0.173283 -0.311507
372.5238
372.5238
430.2065
430.2065
718.946
718.946
0.100045 0.288805 0.0
303.4398
327.1614
513.4717
641.4888
686.6213
802.2452
0.100045 0.288805 0.062301
304.9538
336.6827
517.1406
642.4002
677.4913
806.6759
0.100045 0.288805 0.124603
316.7811
359.7459
519.9797
623.4011
680.8845
813.1677
0.100045 0.288805 0.186904
344.3793
389.7778
511.8148
579.6447
710.6
812.8142
0.100045 0.288805 0.249206
383.8425
418.7412
494.7745
531.2276
746.7067
801.5663
0.100045 0.288805 -0.311507
420.3604
420.3604
494.4757
494.4757
778.8214
778.8214
0.100045 0.404327 0.0
388.3966
390.2091
574.9841
721.3125
731.4944
786.4562
0.100045 0.404327 0.062301
377.1513
405.0218
573.965
692.4881
745.4247
802.0746
0.100045 0.404327 0.124603
370.9158
426.6069
565.9557
648.6471
766.8766
825.9633
0.100045 0.404327 0.186904
377.9725
452.6966
544.4195
605.3913
794.0209
842.0643
0.100045 0.404327 0.249206
402.2176
467.8596
521.3167
568.8526
819.9154
846.4387
0.100045 0.404327 -0.311507
439.2399
439.2399
537.4984
537.4984
838.563
838.563
0.100045 0.519849 0.0
416.2598
453.7672
606.8575
670.4946
760.4714
834.916
0.100045 0.519849 0.062301
413.7758
455.779
598.0762
661.3673
772.0754
841.9936
0.100045 0.519849 0.124603
405.6582
468.3937
571.419
642.0579
798.7717
857.3858
0.100045 0.519849 0.186904
401.7127
491.0637
533.0042
618.4209
828.9611
871.1212
0.100045 0.519849 0.249206
412.9731
481.2781
528.5994
590.7078
854.6364
876.6448
0.100045 0.519849 -0.311507
441.634
441.634
559.7274
559.7274
871.1966
871.1966
0.20009 0.346566 0.0
381.8822
437.0704
562.5705
720.7802
740.3197
751.3125
0.20009 0.346566 0.062301
374.8526
442.2802
571.5527
681.6102
753.8196
772.0977
0.20009 0.346566 0.124603
364.7473
455.8522
586.6891
630.4582
763.105
801.96
0.20009 0.346566 0.186904
367.5884
469.7452
582.6754
591.816
780.5311
820.0383
0.20009 0.346566 0.249206
389.565
462.2634
559.37
583.639
801.3798
825.1959
0.20009 0.346566 -0.311507
426.3131
426.3131
568.1955
568.1955
818.0755
818.0755
0.20009 0.462088 0.0
456.3583
504.5859
624.257
671.0999
736.7061
804.8183
0.20009 0.462088 0.062301
441.1079
511.8548
621.4602
657.444
756.0215
807.9555
0.20009 0.462088 0.124603
414.6494
520.3017
593.4744
659.7833
783.8293
818.7314
0.20009 0.462088 0.186904
397.3401
502.1512
584.5083
660.1868
807.5076
833.196
0.20009 0.462088 0.249206
399.3128
460.5738
603.4954
648.2784
827.2945
841.7102
0.20009 0.462088 -0.311507
422.2843
422.2843
627.6321
627.6321
839.6976
839.6976
0.20009 0.57761 0.0
498.023
524.979
629.9128
657.3263
733.3707
821.63
0.20009 0.57761 0.062301
475.0075
541.7326
596.0521
679.3575
745.5103
824.3406
0.20009 0.57761 0.124603
441.0262
546.6173
565.5753
693.5778
773.9089
832.6907
0.20009 0.57761 0.186904
414.8932
496.6066
592.4376
690.1242
805.1509
843.3449
0.20009 0.57761 0.249206
406.5133
452.0774
621.506
673.8879
830.4258
849.288
0.20009 0.57761 -0.311507
419.8354
419.8354
649.8039
649.8039
845.5193
845.5193
0.300135 0.519849 0.0
524.5498
599.4855
605.1319
670.0253
711.066
805.4823
0.300135 0.519849 0.062301
504.6008
571.7792
613.8273
687.2888
730.7085
802.9885
0.300135 0.519849 0.124603
465.5873
524.3504
628.6874
717.2293
765.1386
798.1886
0.300135 0.519849 0.186904
430.4849
476.2156
650.6187
732.2472
794.363
800.1048
0.300135 0.519849 0.249206
411.1482
436.7547
676.6709
723.678
810.8878
812.3056
0.300135 0.519849 -0.311507
413.3378
413.3378
702.5878
702.5878
817.3446
817.3446
P	=	7999.93	V	=	72.04706	E	=	-654.54324072
0.0 0.0 0.0
-0.0
0.0
0.0
444.7523
444.7523
950.4544
0.0 0.0 0.062295
68.1095
68.1095
166.2251
439.1347
439.1347
941.0092
0.0 0.0 0.124589
134.147
134.147
325.6718
422.2084
422.2084
912.6622
0.0 0.0 0.186884
196.7406
196.7406
394.0813
394.0813
472.2796
865.2168
0.0 0.0 0.249179
255.1759
255.1759
355.636
355.636
601.3971
798.0519
0.0 0.0 -0.311473
308.649
308.649
308.649
308.649
710.2706
710.2706
0.0 0.115529 0.0
128.2615
132.2488
295.6146
467.2854
510.5824
933.5186
0.0 0.115529 0.062295
149.6077
162.1881
328.0246
462.0033
504.7422
925.2692
0.0 0.115529 0.124589
190.8659
218.7372
414.0112
446.1235
487.4208
900.4599
0.0 0.115529 0.186884
240.9724
272.8635
419.8362
457.9649
523.2704
858.8158
0.0 0.115529 0.249179
292.1615
324.9469
384.0882
419.9615
629.4513
799.8004
0.0 0.115529 -0.311473
340.7361
340.7361
374.6409
374.6409
723.0421
723.0421
0.0 0.231057 0.0
246.3723
247.1033
518.1579
539.5424
648.07
885.2635
0.0 0.231057 0.062295
257.0704
261.6745
513.4699
554.5841
640.0811
881.8968
0.0 0.231057 0.124589
285.4919
299.7767
499.4503
588.477
623.1656
870.8711
0.0 0.231057 0.186884
324.1197
351.0967
476.4156
569.3634
660.1502
850.0804
0.0 0.231057 0.249179
366.3887
408.0676
445.3032
521.489
718.7272
817.6445
0.0 0.231057 -0.311473
407.8277
407.8277
466.1239
466.1239
773.1736
773.1736
0.0 0.346586 0.0
328.151
350.4142
569.5431
700.8411
779.621
814.39
0.0 0.346586 0.062295
336.7432
354.6393
565.1727
704.9444
755.7346
835.6619
0.0 0.346586 0.124589
360.303
369.8152
552.2015
680.4893
757.1074
858.4319
0.0 0.346586 0.186884
393.6658
399.7568
531.0989
625.4572
789.3227
869.3923
0.0 0.346586 0.249179
431.3121
444.7553
502.7844
563.3998
823.4205
866.6661
0.0 0.346586 -0.311473
468.7677
468.7677
501.181
501.181
850.6285
850.6285
0.0 0.462114 0.0
373.4546
433.0976
604.7383
739.308
786.7036
862.9485
0.0 0.462114 0.062295
381.1343
430.796
600.3599
717.1465
800.8551
874.1185
0.0 0.462114 0.124589
402.5796
428.863
587.4584
671.4661
829.3835
895.0686
0.0 0.462114 0.186884
433.7461
437.1817
566.6774
616.5652
861.5441
911.1856
0.0 0.462114 0.249179
462.5554
469.695
539.0089
558.8442
889.7637
916.3561
0.0 0.462114 -0.311473
504.9889
504.9889
505.9208
505.9208
908.9475
908.9475
0.0 -0.577643 0.0
387.2703
471.6873
617.0399
700.5849
813.5311
889.4937
0.0 -0.577643 0.062295
394.6755
466.2695
612.6027
686.4582
824.493
897.7064
0.0 -0.577643 0.124589
415.5039
456.3751
599.5652
650.4701
851.4946
914.9344
0.0 -0.577643 0.186884
446.0936
454.4898
578.6519
602.6233
883.2209
929.6969
0.0 -0.577643 0.249179
469.7854
481.7092
550.9071
550.9599
910.7055
935.186
0.0 -0.577643 -0.311473
503.7949
503.7949
517.8168
517.8168
928.8067
928.8067
0.100051 0.173293 0.0
216.8439
239.3536
444.0103
542.0268
597.5534
900.8708
0.100051 0.173293 0.062295
232.5792
249.9842
458.3435
543.255
590.2877
895.5287
0.100051 0.173293 0.124589
271.9054
278.111
478.615
562.5121
568.9419
879.1092
0.100051 0.173293 0.186884
315.9929
321.7849
470.7362
535.1192
618.9985
850.6115
0.100051 0.173293 0.249179
356.3428
371.8269
448.0724
492.1809
688.6458
809.0113
0.100051 0.173293 -0.311473
389.0937
389.0937
449.0859
449.0859
754.259
754.259
0.100051 0.288821 0.0
317.1218
342.0175
536.9016
672.207
718.3917
840.8371
0.100051 0.288821 0.062295
318.8889
351.9104
540.6052
672.4946
709.532
845.6565
0.100051 0.288821 0.124589
331.4151
375.9137
543.3634
651.3346
714.4227
852.7873
0.100051 0.288821 0.186884
360.0892
407.1496
534.7399
605.5768
745.5281
852.6079
0.100051 0.288821 0.249179
400.9834
437.2155
516.9842
555.0271
783.2564
840.813
0.100051 0.288821 -0.311473
438.8549
438.8549
516.7158
516.7158
816.9047
816.9047
0.100051 0.40435 0.0
406.5295
407.3605
601.1005
755.3165
765.6317
824.3722
0.100051 0.40435 0.062295
394.2964
423.569
599.9597
724.3364
781.4044
840.5146
0.100051 0.40435 0.124589
388.08
446.2006
591.5025
678.4655
804.0451
865.7007
0.100051 0.40435 0.186884
395.5987
473.3145
569.1136
633.2501
832.4025
882.7974
0.100051 0.40435 0.249179
420.7999
488.9142
545.3081
594.9119
859.5125
887.4383
0.100051 0.40435 -0.311473
459.2453
459.2453
562.1147
562.1147
879.117
879.117
0.100051 0.519878 0.0
436.0794
473.4898
634.5909
701.0474
796.43
875.604
0.100051 0.519878 0.062295
433.1298
476.2789
625.3204
691.7661
808.5097
882.9906
0.100051 0.519878 0.124589
424.525
490.18
597.469
671.8901
836.3958
899.1304
0.100051 0.519878 0.186884
420.6357
513.9092
557.5983
647.1777
868.1237
913.5253
0.100051 0.519878 0.249179
432.4706
503.6166
553.174
618.0769
895.3313
919.1463
0.100051 0.519878 -0.311473
462.3428
462.3428
585.6299
585.6299
913.089
913.089
0.200101 0.346586 0.0
398.7917
456.6401
587.8793
753.2943
775.0377
788.7263
0.200101 0.346586 0.062295
391.7339
462.0283
597.0948
712.6194
791.3244
808.3083
0.200101 0.346586 0.124589
381.6053
476.0486
612.6708
659.311
800.9306
840.1143
0.200101 0.346586 0.186884
384.6493
490.3276
609.636
617.9932
818.9243
859.465
0.200101 0.346586 0.249179
407.3554
482.5743
585.1444
609.6292
840.464
865.076
0.200101 0.346586 -0.311473
445.4127
445.4127
593.8432
593.8432
857.7474
857.7474
0.200101 0.462114 0.0
476.3964
527.524
652.1407
701.792
770.5961
844.2855
0.200101 0.462114 0.062295
460.8122
535.018
649.2514
687.5206
791.147
847.4087
0.200101 0.462114 0.124589
433.7191
543.6055
620.7743
689.6026
820.909
858.2867
0.200101 0.462114 0.186884
415.9365
524.7745
611.5764
690.014
846.0276
873.1798
0.200101 0.462114 0.249179
417.968
481.6772
631.1534
677.6616
866.7866
881.9999
0.200101 0.462114 -0.311473
441.8286
441.8286
656.2044
656.2044
879.8124
879.8124
0.200101 0.577643 0.0
519.8958
549.1279
658.3585
686.5254
767.5162
861.5353
0.200101 0.577643 0.062295
496.2373
566.5976
622.8307
710.0515
780.1214
864.2818
0.200101 0.577643 0.124589
461.2563
571.4525
591.6238
725.3578
809.7776
872.8466
0.200101 0.577643 0.186884
434.3404
519.5247
619.6919
721.9161
842.6147
883.835
0.200101 0.577643 0.249179
425.6655
473.1607
650.0472
704.9053
869.3592
889.8155
0.200101 0.577643 -0.311473
439.5295
439.5295
679.6533
679.6533
885.5231
885.5231
0.300152 0.519878 0.0
547.7589
627.023
632.3324
699.9781
743.0166
844.5577
0.300152 0.519878 0.062295
527.1923
597.4401
642.2146
718.0847
763.7151
841.8632
0.300152 0.519878 0.124589
486.9539
548.1965
657.754
749.6255
800.1307
836.5794
0.300152 0.519878 0.186884
450.6405
498.2658
680.6062
765.7648
831.0672
838.0535
0.300152 0.519878 0.249179
430.4957
457.1745
707.8538
757.0887
848.8603
850.0325
0.300152 0.519878 -0.311473
432.7299
432.7299
735.0255
735.0255
855.4158
855.4158
P	=	8999.92	V	=	69.6536	E	=	-654.40510781
0.0 0.0 0.0
-0.0
-0.0
0.0
462.9149
462.9149
992.9712
0.0 0.0 0.062289
70.8439
70.8439
173.4535
457.1344
457.1344
982.9313
0.0 0.0 0.124578
139.5473
139.5473
339.7782
439.6615
439.6615
952.8933
0.0 0.0 0.186867
204.7148
204.7148
410.4923
410.4923
492.6305
902.8723
0.0 0.0 0.249156
265.6303
265.6303
370.4635
370.4635
627.2009
832.4311
0.0 0.0 -0.311445
321.4353
321.4353
321.4353
321.4353
740.7226
740.7226
0.0 0.115532 0.0
133.6124
137.44
308.0512
486.2671
530.805
974.9637
0.0 0.115532 0.062289
155.4981
168.6184
342.1371
480.8072
524.7949
966.253
0.0 0.115532 0.124578
198.4176
227.1051
432.154
464.3564
506.9061
940.1004
0.0 0.115532 0.186867
250.5646
283.2682
437.0368
476.272
546.1636
896.3318
0.0 0.115532 0.249156
303.8941
337.4372
399.7862
436.6041
656.8115
834.5206
0.0 0.115532 -0.311445
354.5571
354.5571
389.2588
389.2588
754.3668
754.3668
0.0 0.231064 0.0
256.2995
257.1901
539.0984
562.2461
673.4601
923.7511
0.0 0.231064 0.062289
267.3891
272.357
534.2137
578.0085
665.2417
920.3149
0.0 0.231064 0.124578
296.8635
311.8717
519.5977
612.7001
648.6332
908.9505
0.0 0.231064 0.186867
336.9585
364.9004
495.5682
591.4671
688.769
887.3041
0.0 0.231064 0.249156
380.8938
423.7578
463.1084
541.5494
749.9721
853.374
0.0 0.231064 -0.311445
424.037
424.037
483.9372
483.9372
806.8511
806.8511
0.0 0.346596 0.0
341.8653
364.3634
592.6436
730.001
811.4687
848.7604
0.0 0.346596 0.062289
350.7351
368.9501
588.0677
733.8149
787.216
870.9972
0.0 0.346596 0.124578
375.0713
385.039
574.4933
707.6092
789.5081
895.1201
0.0 0.346596 0.186867
409.5757
416.2086
552.4339
650.4182
823.1032
906.7926
0.0 0.346596 0.249156
448.5799
462.785
522.8883
585.9043
858.6692
903.9552
0.0 0.346596 -0.311445
487.4753
487.4753
521.2655
521.2655
887.1207
887.1207
0.0 0.462128 0.0
389.5984
450.0734
629.4497
769.574
819.5462
899.4746
0.0 0.462128 0.062289
397.514
447.9798
624.8572
746.4358
834.3748
911.2192
0.0 0.462128 0.124578
419.6207
446.5593
611.3388
698.9363
864.1334
933.3109
0.0 0.462128 0.186867
451.7663
455.603
589.6104
641.9475
897.7293
950.2808
0.0 0.462128 0.249156
482.0603
488.8956
560.7696
582.0248
927.3518
955.6092
0.0 0.462128 -0.311445
526.1103
526.1103
526.401
526.401
947.6393
947.6393
0.0 -0.577661 0.0
404.2489
490.1307
642.3444
728.8255
847.7063
927.5659
0.0 -0.577661 0.062289
411.8824
484.8418
637.6879
714.2432
858.9822
936.2014
0.0 -0.577661 0.124578
433.3462
475.2411
624.023
677.0674
886.916
954.324
0.0 -0.577661 0.186867
464.8677
473.7934
602.1593
627.5855
920.0198
969.7841
0.0 -0.577661 0.249156
489.8734
501.6023
573.2592
574.0851
948.9845
975.3403
0.0 -0.577661 -0.311445
525.1902
525.1902
538.9301
538.9301
968.3044
968.3044
0.100054 0.173298 0.0
225.7603
248.5513
462.5676
564.3429
620.7981
940.3027
0.100054 0.173298 0.062289
242.0833
259.6051
477.4524
565.8258
613.3083
934.7558
0.100054 0.173298 0.124578
282.795
288.8498
498.0706
586.6719
591.2223
917.6589
0.100054 0.173298 0.186867
328.2463
334.3511
489.5097
556.0505
646.0189
887.8929
0.100054 0.173298 0.249156
370.2452
386.1817
465.6989
511.2526
718.7206
844.3909
0.100054 0.173298 -0.311445
404.3517
404.3517
466.3423
466.3423
787.1858
787.1858
0.100054 0.28883 0.0
329.8788
355.3986
558.4902
700.156
747.4056
876.7333
0.100054 0.28883 0.062289
331.8582
365.6581
562.2447
699.9731
738.856
881.9005
0.100054 0.28883 0.124578
345.0387
390.5535
564.9252
677.0755
745.1993
889.6247
0.100054 0.28883 0.186867
374.7157
422.9395
555.8451
629.4986
777.7757
889.6072
0.100054 0.28883 0.249156
416.8981
454.1131
537.3835
576.9165
817.0978
877.2711
0.100054 0.28883 -0.311445
455.9467
455.9467
537.0817
537.0817
852.2268
852.2268
0.100054 0.404362 0.0
423.0549
423.449
625.1258
786.5585
797.3642
859.0848
0.100054 0.404362 0.062289
410.2237
440.6191
623.8739
753.8073
814.5211
875.893
0.100054 0.404362 0.124578
404.0968
464.1385
615.0257
706.0311
838.2901
902.4192
0.100054 0.404362 0.186867
412.0992
492.1629
591.9341
658.9304
867.8197
920.4766
0.100054 0.404362 0.249156
438.1999
508.289
567.4638
618.8456
896.0689
925.3437
0.100054 0.404362 -0.311445
477.8943
477.8943
584.6992
584.6992
916.576
916.576
0.100054 0.519894 0.0
454.3254
492.0763
660.0791
729.4118
829.6827
912.975
0.100054 0.519894 0.062289
451.0192
495.4897
650.3714
719.9068
842.1924
920.703
0.100054 0.519894 0.124578
442.1073
510.4063
621.4653
699.3729
871.1472
937.6165
0.100054 0.519894 0.186867
438.3781
534.9892
580.3568
673.5885
904.2589
952.655
0.100054 0.519894 0.249156
450.8111
524.3792
575.825
643.184
932.8595
958.3607
0.100054 0.519894 -0.311445
481.7626
481.7626
609.4136
609.4136
951.7251
951.7251
0.200107 0.346596 0.0
414.627
474.2057
611.2393
783.2296
807.3304
822.9071
0.200107 0.346596 0.062289
407.533
479.7621
620.667
741.2882
825.648
841.8948
0.200107 0.346596 0.124578
397.4003
494.2157
636.6144
686.05
835.6744
875.5092
0.200107 0.346596 0.186867
400.693
508.955
634.6305
642.0516
854.2887
896.0215
0.200107 0.346596 0.249156
424.1066
501.3
608.8311
633.437
876.52
901.9946
0.200107 0.346596 -0.311445
463.2964
463.2964
617.2902
617.2902
894.4022
894.4022
0.200107 0.462128 0.0
495.2127
548.3954
677.8218
730.3562
801.9319
880.5155
0.200107 0.462128 0.062289
479.2656
556.1014
674.9021
715.3975
823.6384
883.6727
0.200107 0.462128 0.124578
451.577
564.7912
646.0833
717.06
855.1484
894.7416
0.200107 0.462128 0.186867
433.4666
545.5646
636.5257
717.3725
881.5422
910.0694
0.200107 0.462128 0.249156
435.6913
501.4116
656.4678
704.5331
903.1791
919.1598
0.200107 0.462128 -0.311445
460.3549
460.3549
682.2993
682.2993
916.7888
916.7888
0.200107 0.577661 0.0
540.4609
571.2891
684.83
713.3607
799.1546
898.2193
0.200107 0.577661 0.062289
516.0708
589.5206
647.6027
738.3392
812.1745
901.0166
0.200107 0.577661 0.124578
480.1439
594.3795
615.6278
754.5623
842.9399
909.8009
0.200107 0.577661 0.186867
452.6359
540.7985
644.7353
751.0315
877.1886
921.099
0.200107 0.577661 0.249156
443.8918
493.0038
676.1677
733.2356
905.2476
927.1225
0.200107 0.577661 -0.311445
458.2954
458.2954
706.9029
706.9029
922.3702
922.3702
0.300161 0.519894 0.0
569.5143
652.2919
657.718
727.6278
772.5412
880.4713
0.300161 0.519894 0.062289
548.3025
621.1795
668.4118
746.5082
794.2272
877.5783
0.300161 0.519894 0.124578
506.8823
570.2342
684.5192
779.4621
832.4441
871.812
0.300161 0.519894 0.186867
469.5983
518.7995
708.1019
796.4845
864.9286
872.8953
0.300161 0.519894 0.249156
448.9794
476.5245
736.2891
787.5378
883.8087
884.8328
0.300161 0.519894 -0.311445
451.3517
451.3517
764.5247
764.5247
890.5166
890.5166
P	=	10000.04	V	=	67.54061	E	=	-654.26877876
0.0 0.0 0.0
-0.0
-0.0
0.0
479.6487
479.6487
1032.6866
0.0 0.0 0.06228
73.3447
73.3447
180.2246
473.725
473.725
1022.0804
0.0 0.0 0.12456
144.504
144.504
353.0292
455.7672
455.7672
990.4551
0.0 0.0 0.186839
212.0654
212.0654
425.6605
425.6605
511.7957
938.066
0.0 0.0 0.249119
275.2988
275.2988
384.1878
384.1878
651.5132
864.6504
0.0 0.0 -0.311399
333.276
333.276
333.276
333.276
769.3566
769.3566
0.0 0.115539 0.0
138.5685
142.2225
319.7677
503.7603
549.453
1013.6524
0.0 0.115539 0.06228
160.9169
174.6375
355.3223
498.139
543.2734
1004.5007
0.0 0.115539 0.12456
205.3619
234.891
449.0608
481.1693
524.8492
977.09
0.0 0.115539 0.186839
259.4011
292.8924
452.9101
493.1471
567.6083
931.3833
0.0 0.115539 0.249119
314.7239
349.0131
414.2851
451.9987
682.5274
867.0523
0.0 0.115539 -0.311399
367.3259
367.3259
402.8194
402.8194
783.7991
783.7991
0.0 0.231077 0.0
265.5272
266.526
558.3952
583.6154
696.962
959.6403
0.0 0.231077 0.06228
276.9747
282.2731
553.3238
599.9327
688.5119
956.122
0.0 0.231077 0.12456
307.4131
323.1338
538.1486
635.052
672.3284
944.4214
0.0 0.231077 0.186839
348.8509
377.795
513.201
611.8647
715.443
922.0064
0.0 0.231077 0.249119
394.3057
438.47
479.5132
560.1972
779.1825
886.7593
0.0 0.231077 -0.311399
438.9955
438.9955
500.6174
500.6174
838.3719
838.3719
0.0 0.346616 0.0
354.7283
377.3078
613.9245
757.2711
841.2385
880.8114
0.0 0.346616 0.06228
363.8602
382.2502
609.1521
760.6496
816.7308
903.8966
0.0 0.346616 0.12456
388.9165
399.2401
595.0094
732.7484
819.8095
929.2198
0.0 0.346616 0.186839
424.4502
431.6494
572.0716
673.6457
854.6115
941.5627
0.0 0.346616 0.249119
464.6479
479.804
541.4272
606.9953
891.5623
938.6914
0.0 0.346616 -0.311399
504.7937
504.7937
540.2142
540.2142
921.1742
921.1742
0.0 0.462154 0.0
404.8327
465.9273
652.2199
797.8151
850.1721
933.8003
0.0 0.462154 0.06228
412.9822
464.0311
647.426
773.7662
865.6262
946.0202
0.0 0.462154 0.12456
435.7194
463.1086
633.3355
724.5975
896.4868
969.093
0.0 0.462154 0.186839
468.7424
472.8923
610.7518
665.7291
931.4061
986.8151
0.0 0.462154 0.249119
500.4534
506.8738
580.8897
603.8432
962.3776
992.272
0.0 0.462154 -0.311399
545.4423
545.4423
546.0548
546.0548
983.7482
983.7482
0.0 -0.577693 0.0
420.3052
507.4316
665.6667
755.1662
879.5745
963.3825
0.0 -0.577693 0.06228
428.1702
502.2464
660.806
740.1874
891.1134
972.391
0.0 -0.577693 0.12456
450.2485
492.8956
646.5647
701.9701
919.8633
991.3058
0.0 -0.577693 0.186839
482.6049
491.8789
623.8503
651.0429
954.2394
1007.3669
0.0 -0.577693 0.249119
508.7701
520.276
593.9541
595.8893
984.6364
1012.9188
0.0 -0.577693 -0.311399
545.3783
545.3783
558.5978
558.5978
1005.1827
1005.1827
0.100059 0.173308 0.0
234.0112
257.0607
479.9256
585.1011
642.2469
977.0822
0.100059 0.173308 0.06228
250.9206
268.4967
495.2054
586.8272
634.5216
971.3301
0.100059 0.173308 0.12456
292.9482
298.7591
515.9984
609.1657
611.7179
953.5894
0.100059 0.173308 0.186839
339.5451
346.0717
506.7967
575.3456
671.225
922.6793
0.100059 0.173308 0.249119
383.0565
399.5641
481.9795
528.9559
746.8807
877.487
0.100059 0.173308 -0.311399
418.417
418.417
482.4516
482.4516
818.048
818.048
0.100059 0.288846 0.0
341.6929
367.8574
578.4494
726.2177
774.4693
910.2104
0.100059 0.288846 0.06228
343.9077
378.4462
582.2032
725.4362
766.305
915.6577
0.100059 0.288846 0.12456
357.7574
404.1588
584.7546
700.8459
773.9761
923.8695
0.100059 0.288846 0.186839
388.4329
437.5933
575.2615
651.6744
807.8841
924.0084
0.100059 0.288846 0.249119
431.8225
469.7527
556.2748
597.3621
848.7215
911.2494
0.100059 0.288846 -0.311399
471.8093
471.8093
556.1485
556.1485
885.2246
885.2246
0.100059 0.404385 0.0
438.4216
438.5377
647.2626
815.6347
826.9946
891.6642
0.100059 0.404385 0.06228
425.1119
456.5521
645.8947
781.2352
845.4736
908.9684
0.100059 0.404385 0.12456
419.1099
480.9193
636.6801
731.6767
870.2681
936.6256
0.100059 0.404385 0.186839
427.624
509.786
613.0144
682.8395
900.8686
955.5522
0.100059 0.404385 0.249119
454.5937
526.3367
588.1425
641.159
930.1914
960.6715
0.100059 0.404385 -0.311399
495.3721
495.3721
605.8052
605.8052
951.5338
951.5338
0.100059 0.519923 0.0
471.483
509.4872
683.5473
755.9123
860.6632
948.0759
0.100059 0.519923 0.06228
467.8559
513.4791
673.4823
746.1497
873.5571
956.1051
0.100059 0.519923 0.12456
458.6618
529.3625
643.7021
724.9248
903.4771
973.6992
0.100059 0.519923 0.186839
455.0823
554.7653
601.5531
698.1326
937.8775
989.2919
0.100059 0.519923 0.249119
468.0867
543.8221
597.0483
666.5676
967.8222
995.027
0.100059 0.519923 -0.311399
500.0241
500.0241
631.6404
631.6404
987.7897
987.7897
0.200119 0.346616 0.0
429.3383
490.556
632.8324
810.9129
837.5029
855.0346
0.200119 0.346616 0.06228
422.2427
496.2714
642.4165
767.9036
857.8852
873.104
0.200119 0.346616 0.12456
412.1851
511.1237
658.6516
710.8833
868.2596
908.317
0.200119 0.346616 0.186839
415.8083
526.2487
657.9272
664.2079
887.424
929.9206
0.200119 0.346616 0.249119
439.9215
518.6766
631.0167
655.4659
910.2678
936.3354
0.200119 0.346616 -0.311399
480.063
480.063
639.143
639.143
928.6258
928.6258
0.200119 0.462154 0.0
512.7996
567.8486
701.5496
757.1154
831.0009
914.4546
0.200119 0.462154 0.06228
496.5239
575.7606
698.6695
741.3716
853.8066
917.644
0.200119 0.462154 0.12456
468.3246
584.5697
669.6328
742.4629
886.9853
928.8495
0.200119 0.462154 0.186839
449.9886
564.9654
659.8122
742.6794
914.6551
944.5002
0.200119 0.462154 0.249119
452.4467
519.8926
680.1169
729.4737
937.1508
953.8201
0.200119 0.462154 -0.311399
477.8168
477.8168
706.6195
706.6195
951.2975
951.2975
0.200119 0.577693 0.0
559.7606
591.9738
709.6413
738.1073
828.6018
932.5026
0.200119 0.577693 0.06228
534.6746
610.9203
670.7309
764.51
842.0103
935.3694
0.200119 0.577693 0.12456
497.8744
615.7933
638.041
781.5658
873.8066
944.3846
0.200119 0.577693 0.186839
469.8592
560.7128
668.1386
778.0025
909.3725
955.9543
0.200119 0.577693 0.249119
461.1037
511.6585
700.5795
759.5749
938.6808
961.9734
0.200119 0.577693 -0.311399
476.0099
476.0099
732.3247
732.3247
956.7416
956.7416
0.300178 0.519923 0.0
589.9346
675.7453
681.565
753.3441
799.9522
913.8642
0.300178 0.519923 0.06228
568.0927
643.3985
692.7769
772.9531
822.5882
910.8126
0.300178 0.519923 0.12456
525.5666
590.8561
709.4106
807.19
862.4887
904.6766
0.300178 0.519923 0.186839
487.4411
538.047
733.7196
825.0038
896.412
905.4686
0.300178 0.519923 0.249119
466.4583
494.7494
762.8242
815.8788
916.4397
917.2115
0.300178 0.519923 -0.311399
468.9692
468.9692
792.0467
792.0467
923.2234
923.2234
P	=	11000.18	V	=	65.65338	E	=	-654.13416997
0.0 0.0 0.0
-0.0
-0.0
0.0
495.3345
495.3345
1070.1335
0.0 0.0 0.062268
75.727
75.727
186.5326
489.2979
489.2979
1058.9854
0.0 0.0 0.124536
149.1809
149.1809
365.3898
470.9229
470.9229
1025.8411
0.0 0.0 0.186805
218.9382
218.9382
439.9423
439.9423
529.7055
971.1865
0.0 0.0 0.249073
284.3074
284.3074
397.0718
397.0718
674.2786
894.9296
0.0 0.0 -0.311341
344.3371
344.3371
344.3371
344.3371
796.2207
796.2207
0.0 0.115547 0.0
143.1815
146.6889
330.6536
520.1522
566.8671
1050.1427
0.0 0.115547 0.062268
165.9864
180.2058
367.6682
514.3938
560.5582
1040.581
0.0 0.115547 0.124536
211.8515
242.1408
464.9424
496.961
541.682
1011.9828
0.0 0.115547 0.186805
267.6272
301.8762
467.8163
508.9783
587.7034
964.4106
0.0 0.115547 0.249073
324.791
359.7779
427.8593
466.3817
706.5979
897.6293
0.0 0.115547 -0.311341
379.2272
379.2272
415.4295
415.4295
811.3861
811.3861
0.0 0.231094 0.0
274.1901
275.2504
576.4989
603.562
718.9052
993.5053
0.0 0.231094 0.062268
285.9635
291.5964
571.2566
620.459
710.2804
989.9377
0.0 0.231094 0.124536
317.277
333.787
555.559
655.9828
694.638
977.9479
0.0 0.231094 0.186805
359.9364
389.9358
529.7333
631.0046
740.4775
954.7473
0.0 0.231094 0.249073
406.7937
452.2007
494.8561
577.6244
806.5104
918.1174
0.0 0.231094 -0.311341
452.9448
452.9448
516.1435
516.1435
867.8629
867.8629
0.0 0.34664 0.0
366.8979
389.4455
633.9642
782.8812
869.2258
911.0463
0.0 0.34664 0.062268
376.2674
394.7794
629.0086
785.8813
844.5336
934.9389
0.0 0.34664 0.124536
401.9745
412.6928
614.3305
756.4796
848.3547
961.4134
0.0 0.34664 0.186805
438.4397
446.2256
590.5527
695.5715
884.244
974.3307
0.0 0.34664 0.249073
479.7315
495.747
558.85
626.8168
922.4004
971.308
0.0 0.34664 -0.311341
521.0495
521.0495
557.9364
557.9364
953.0704
953.0704
0.0 0.462187 0.0
419.3513
480.8061
673.7432
824.4348
879.163
966.2439
0.0 0.462187 0.062268
427.7218
479.1221
668.765
799.5691
895.1816
978.9122
0.0 0.462187 0.124536
451.0444
478.7053
654.1437
748.8647
927.0401
1002.8994
0.0 0.462187 0.186805
484.8648
489.169
630.7521
688.2084
963.1355
1021.2819
0.0 0.462187 0.249073
517.7182
523.9027
599.9165
624.3992
995.309
1026.7829
0.0 0.462187 -0.311341
563.4508
563.4508
564.7779
564.7779
1017.6849
1017.6849
0.0 -0.577734 0.0
435.6538
523.6616
687.7455
779.9885
909.8481
997.3029
0.0 -0.577734 0.062268
443.743
518.5904
682.7003
764.6523
921.5995
1006.6506
0.0 -0.577734 0.124536
466.4019
509.4988
667.9295
725.4764
951.0342
1026.2792
0.0 -0.577734 0.186805
499.5205
508.885
644.4171
673.1809
986.5187
1042.8547
0.0 -0.577734 0.249073
526.5237
538.0316
613.5773
616.431
1018.207
1048.3417
0.0 -0.577734 -0.311341
564.357
564.357
577.2591
577.2591
1039.9037
1039.9037
0.100066 0.17332 0.0
241.7144
264.9838
496.1389
604.5077
662.2754
1011.7839
0.100066 0.17332 0.062268
259.2122
276.7785
511.8299
606.4965
654.3647
1005.8625
0.100066 0.17332 0.124536
302.5267
307.9805
532.7993
630.3093
630.9488
987.5391
0.100066 0.17332 0.186805
350.0324
357.089
522.9732
593.4559
694.8844
955.4979
0.100066 0.17332 0.249073
394.933
412.049
497.1666
545.508
773.2315
908.5857
0.100066 0.17332 -0.311341
431.484
431.484
497.4521
497.4521
846.9376
846.9376
0.100066 0.288867 0.0
352.7663
379.5103
597.1464
750.6264
799.9049
941.7931
0.100066 0.288867 0.062268
355.2635
390.4087
600.909
749.3082
792.1541
947.5356
0.100066 0.288867 0.124536
369.8134
416.8799
603.3415
723.2521
801.0754
956.2341
0.100066 0.288867 0.186805
401.38
451.2596
593.444
672.5837
836.2017
956.4541
0.100066 0.288867 0.249073
445.7974
484.3109
573.9326
616.5366
878.3655
943.1611
0.100066 0.288867 -0.311341
486.6138
486.6138
573.9315
573.9315
916.1254
916.1254
0.100066 0.404414 0.0
452.483
453.1343
668.0931
843.0761
854.9221
922.4124
0.100066 0.404414 0.062268
439.1442
471.564
666.6205
807.1455
874.6705
940.1922
0.100066 0.404414 0.124536
433.309
496.725
657.0785
755.9324
900.4426
968.921
0.100066 0.404414 0.186805
442.287
526.3462
632.9015
705.3912
932.0047
988.6235
0.100066 0.404414 0.249073
470.0146
543.3038
607.5796
662.0916
962.2632
993.8981
0.100066 0.404414 -0.311341
511.8076
511.8076
625.5584
625.5584
984.3624
984.3624
0.100066 0.519961 0.0
487.7549
525.8329
705.7131
780.8705
890.0594
981.2959
0.100066 0.519961 0.062268
483.7932
530.4329
695.3172
770.8947
903.2785
989.5967
0.100066 0.519961 0.124536
474.325
547.2706
664.7385
749.036
934.0365
1007.8034
0.100066 0.519961 0.186805
470.8732
573.4306
621.618
721.2667
969.5792
1023.874
0.100066 0.519961 0.249073
484.3868
562.2048
617.0347
688.5697
1000.7419
1029.5829
0.100066 0.519961 -0.311341
517.257
517.257
652.5408
652.5408
1021.7418
1021.7418
0.200133 0.34664 0.0
443.1634
505.8346
653.0718
837.054
865.936
885.3141
0.200133 0.34664 0.062268
436.1169
511.6991
662.8027
793.0537
888.2859
902.5578
0.200133 0.34664 0.124536
426.1908
526.9188
679.2936
734.4207
899.0131
939.2937
0.200133 0.34664 0.186805
430.081
542.4093
679.9831
684.9178
918.6711
961.8833
0.200133 0.34664 0.249073
454.7583
534.97
651.8297
676.0072
942.0177
968.6345
0.200133 0.34664 -0.311341
495.7757
495.7757
659.5189
659.5189
960.778
960.778
0.200133 0.462187 0.0
529.3309
586.121
723.8793
782.2931
858.5485
946.5293
0.200133 0.462187 0.062268
512.7857
594.2239
721.0503
765.871
882.326
949.7472
0.200133 0.462187 0.124536
484.1474
603.1561
691.9019
766.3564
917.0303
961.0743
0.200133 0.462187 0.186805
465.5648
583.2725
681.7532
766.4182
945.8749
976.9943
0.200133 0.462187 0.249073
468.1749
537.3153
702.3068
752.8312
969.1512
986.4815
0.200133 0.462187 -0.311341
494.2111
494.2111
729.3954
729.3954
983.7909
983.7909
0.200133 0.577734 0.0
577.8893
611.4689
732.9746
761.4621
856.5286
964.9161
0.200133 0.577734 0.062268
552.1958
631.0843
692.5444
789.1626
870.2604
967.8332
0.200133 0.577734 0.124536
514.6162
636.0403
659.1621
806.9782
902.9541
977.0363
0.200133 0.577734 0.186805
486.1006
579.5413
690.175
803.3569
939.7092
988.8333
0.200133 0.577734 0.249073
477.2733
529.2374
723.5394
784.3196
970.1695
994.8191
0.200133 0.577734 -0.311341
492.6422
492.6422
756.2129
756.2129
989.1144
989.1144
0.300199 0.519961 0.0
609.1212
697.8243
703.972
777.6457
825.923
945.3729
0.300199 0.519961 0.062268
586.7435
664.3318
715.7289
797.8936
849.389
942.1594
0.300199 0.519961 0.124536
543.2231
610.3482
732.8552
833.2754
890.8147
935.6583
0.300199 0.519961 0.186805
504.2563
556.2257
757.8438
851.7908
926.0568
936.1732
0.300199 0.519961 0.249073
482.8343
511.8717
787.8122
842.5134
947.1699
947.6753
0.300199 0.519961 -0.311341
485.4454
485.4454
817.9468
817.9468
953.9963
953.9963
P	=	11999.56	V	=	63.95375	E	=	-654.00138061
0.0 0.0 0.0
-0.0
-0.0
0.0
510.1008
510.1008
1105.6221
0.0 0.0 0.062255
78.0869
78.0869
192.6802
503.9805
503.9805
1093.9844
0.0 0.0 0.12451
153.8148
153.8148
377.3895
485.2777
485.2777
1059.4593
0.0 0.0 0.186765
225.733
225.733
453.5694
453.5694
547.0052
1002.7254
0.0 0.0 0.24902
293.1601
293.1601
409.4838
409.4838
696.1623
923.8361
0.0 0.0 -0.311275
355.1059
355.1059
355.1059
355.1059
821.9437
821.9437
0.0 0.115554 0.0
147.6642
150.8879
340.9019
535.5884
583.2527
1084.7474
0.0 0.115554 0.062255
170.7916
185.7114
379.2853
529.7173
576.8327
1074.8063
0.0 0.115554 0.12451
218.0795
249.2258
480.0277
511.897
557.5771
1045.1149
0.0 0.115554 0.186765
275.5816
310.5523
481.9931
524.0088
606.9543
995.8355
0.0 0.115554 0.24902
334.5395
370.1643
440.862
480.1482
729.6958
926.8127
0.0 0.115554 -0.311275
390.7064
390.7064
427.5769
427.5769
837.8045
837.8045
0.0 0.231107 0.0
282.37
283.7601
593.6054
622.4043
739.6386
1025.6858
0.0 0.231107 0.062255
294.4559
300.6613
588.2071
639.8088
730.8656
1022.04
0.0 0.231107 0.12451
326.6216
344.0567
572.0375
675.6686
715.8294
1009.7341
0.0 0.231107 0.186765
370.4871
401.5729
545.424
649.1883
764.2696
985.8223
0.0 0.231107 0.24902
418.7215
465.3721
509.472
594.2874
832.6177
947.9917
0.0 0.231107 -0.311275
466.2706
466.2706
531.0472
531.0472
896.0553
896.0553
0.0 0.346661 0.0
378.4784
401.3273
653.0226
807.2093
895.8751
939.8778
0.0 0.346661 0.062255
388.0705
406.9907
647.8948
809.8504
871.043
964.4354
0.0 0.346661 0.12451
414.4007
425.7005
632.7191
779.1445
875.4509
991.9294
0.0 0.346661 0.186765
451.7803
460.2738
608.1703
716.572
912.3996
1005.4171
0.0 0.346661 0.24902
494.1511
511.1332
575.4954
645.8771
951.7815
1002.3425
0.0 0.346661 -0.311275
536.6013
536.6013
575.0377
575.0377
983.4845
983.4845
0.0 0.462214 0.0
433.2781
495.389
694.3288
849.928
906.915
997.2789
0.0 0.462214 0.062255
441.8572
493.8833
689.1797
824.3118
923.4311
1010.3466
0.0 0.462214 0.12451
465.7427
493.9032
674.0695
772.167
956.1889
1035.1556
0.0 0.462214 0.186765
500.3481
504.99
649.9381
709.8346
993.3731
1054.1369
0.0 0.462214 0.24902
534.4776
540.2839
618.2063
644.2369
1026.6862
1059.6722
0.0 0.462214 -0.311275
580.7828
580.7828
582.9107
582.9107
1050.025
1050.025
0.0 -0.577768 0.0
450.4278
539.5642
708.9073
803.8143
938.9218
1029.8057
0.0 -0.577768 0.062255
458.7302
534.591
703.6934
788.1445
950.8587
1039.4633
0.0 -0.577768 0.12451
481.9498
525.7251
688.44
748.075
980.8941
1059.7348
0.0 -0.577768 0.186765
515.8201
525.4724
664.2013
694.5067
1017.3638
1076.7478
0.0 -0.577768 0.24902
543.7938
555.1648
632.4949
636.275
1050.2234
1082.1238
0.0 -0.577768 -0.311275
582.755
582.755
595.2722
595.2722
1072.9952
1072.9952
0.100072 0.17333 0.0
249.2172
272.4358
511.3937
622.843
681.1739
1044.7365
0.100072 0.17333 0.062255
267.2881
284.5755
527.4452
625.0867
673.0941
1038.6365
0.100072 0.17333 0.12451
311.7813
316.7005
548.6201
649.1315
650.3202
1019.7424
0.100072 0.17333 0.186765
360.0198
367.6431
538.2983
610.6518
717.4024
986.671
0.100072 0.17333 0.24902
406.2993
423.9902
511.653
561.316
798.4375
938.2314
0.100072 0.17333 -0.311275
443.9835
443.9835
511.8329
511.8329
874.574
874.574
0.100072 0.288884 0.0
363.5819
390.5035
614.7842
773.7596
824.102
971.8655
0.100072 0.288884 0.062255
366.2894
401.7103
618.546
771.9347
816.7585
977.819
0.100072 0.288884 0.12451
381.4135
428.9157
620.8867
744.5969
826.7877
986.8929
0.100072 0.288884 0.186765
413.7801
464.2389
610.68
692.5556
863.1144
987.2083
0.100072 0.288884 0.24902
459.1797
498.2002
590.7696
634.9065
906.6243
973.5119
0.100072 0.288884 -0.311275
500.7706
500.7706
590.9791
590.9791
945.5974
945.5974
0.100072 0.404437 0.0
466.2343
466.9884
687.8876
869.2712
881.6185
951.7601
0.100072 0.404437 0.062255
452.7114
485.9384
686.3224
831.9616
902.4838
969.9587
0.100072 0.404437 0.12451
447.0241
511.8123
676.5125
779.163
929.1572
999.6455
0.100072 0.404437 0.186765
456.4326
542.1581
651.9294
726.9698
961.6255
1020.0647
0.100072 0.404437 0.24902
484.8896
559.5636
626.2204
682.1282
992.7837
1025.504
0.100072 0.404437 -0.311275
527.6359
527.6359
644.4846
644.4846
1015.607
1015.607
0.100072 0.519991 0.0
503.2807
541.8063
726.8864
804.8157
918.2451
1013.0722
0.100072 0.519991 0.062255
499.0863
546.8951
716.2224
794.6029
931.7571
1021.6306
0.100072 0.519991 0.12451
489.4646
564.5276
684.9668
772.0916
963.2659
1040.3946
0.100072 0.519991 0.186765
486.174
591.3642
640.9651
743.3853
999.8236
1056.8618
0.100072 0.519991 0.24902
500.1806
579.954
636.2144
709.6243
1032.079
1062.4833
0.100072 0.519991 -0.311275
533.9318
533.9318
672.5623
672.5623
1054.0379
1054.0379
0.200145 0.346661 0.0
456.655
520.242
672.1641
862.0484
893.0937
914.1305
0.200145 0.346661 0.062255
449.6173
526.2471
682.0267
817.1658
917.2257
930.5965
0.200145 0.346661 0.12451
439.7429
541.8276
698.7675
757.0232
928.2956
968.6965
0.200145 0.346661 0.186765
443.8406
557.7212
701.149
704.5161
948.413
992.203
0.200145 0.346661 0.24902
469.0421
550.5247
671.7377
695.5268
972.2231
999.3032
0.200145 0.346661 -0.311275
510.8667
510.8667
678.9442
678.9442
991.3442
991.3442
0.200145 0.462214 0.0
545.4177
603.4004
745.0593
806.4312
884.9351
977.0937
0.200145 0.462214 0.062255
528.5735
611.7238
742.3802
789.2987
909.5906
980.3672
0.200145 0.462214 0.12451
499.4857
620.831
713.2675
789.06
945.6819
991.8267
0.200145 0.462214 0.186765
480.647
600.81
702.6954
788.9451
975.58
1007.933
0.200145 0.462214 0.24902
483.3721
554.0722
723.3807
774.9826
999.5246
1017.4918
0.200145 0.462214 -0.311275
510.0123
510.0123
750.9879
750.9879
1014.6018
1014.6018
0.200145 0.577768 0.0
595.4937
629.9433
755.3942
783.7167
883.247
995.8038
0.200145 0.577768 0.062255
569.1403
650.2933
713.5145
812.6543
897.2965
998.8004
0.200145 0.577768 0.12451
530.8193
655.5619
679.3036
831.1509
930.8204
1008.2018
0.200145 0.577768 0.186765
501.827
597.7219
711.1398
827.4377
968.6106
1020.142
0.200145 0.577768 0.24902
492.9045
546.2046
745.2952
807.763
1000.0497
1025.9865
0.200145 0.577768 -0.311275
508.6934
508.6934
778.8083
778.8083
1019.7823
1019.7823
0.300217 0.519991 0.0
627.6833
718.7511
725.5274
800.766
850.7539
975.2794
0.300217 0.519991 0.062255
604.7796
684.4184
737.5881
821.648
875.0148
971.9477
0.300217 0.519991 0.12451
560.3143
629.1272
755.1619
858.1056
917.8579
965.1464
0.300217 0.519991 0.186765
520.5386
573.7677
780.6996
877.1926
954.2614
965.3612
0.300217 0.519991 0.24902
498.6519
528.3782
811.3419
867.633
976.2847
976.5476
0.300217 0.519991 -0.311275
501.3212
501.3212
842.2846
842.2846
983.1077
983.1077
P	=	12999.87	V	=	62.40905	E	=	-653.87018897
0.0 0.0 0.0
-0.0
0.0
0.0
524.0263
524.0263
1139.444
0.0 0.0 0.06224
80.5082
80.5082
198.2724
517.8231
517.8231
1127.332
0.0 0.0 0.124481
158.4127
158.4127
388.4142
498.7777
498.7777
1091.4767
0.0 0.0 0.186721
232.2124
232.2124
466.2943
466.2943
563.099
1032.7494
0.0 0.0 0.248962
301.3636
301.3636
420.9546
420.9546
716.7481
951.3241
0.0 0.0 -0.311202
364.9973
364.9973
364.9973
364.9973
846.3201
846.3201
0.0 0.115561 0.0
151.82
154.7309
350.4897
550.1259
598.6548
1117.7254
0.0 0.115561 0.06224
175.2787
190.7197
390.2095
544.149
592.1412
1107.4199
0.0 0.115561 0.124481
223.968
255.7612
494.1817
525.9442
572.5379
1076.6772
0.0 0.115561 0.186721
283.027
318.6478
495.2571
538.102
625.0174
1025.7473
0.0 0.115561 0.248962
343.5506
379.8298
452.9254
492.986
751.4489
954.5365
0.0 0.115561 -0.311202
401.2889
401.2889
438.8596
438.8596
862.809
862.809
0.0 0.231122 0.0
289.9138
291.6387
609.6908
640.085
759.1274
1056.3592
0.0 0.231122 0.06224
302.3085
309.0809
604.1505
657.9899
750.2558
1052.641
0.0 0.231122 0.124481
335.2895
353.6489
587.5354
694.1403
735.9214
1040.0201
0.0 0.231122 0.186721
380.2709
412.4773
560.1466
666.3556
786.7316
1015.3693
0.0 0.231122 0.248962
429.7745
477.7321
523.1197
610.0096
857.2377
976.2955
0.0 0.231122 -0.311202
478.6494
478.6494
545.0671
545.0671
922.6751
922.6751
0.0 0.346683 0.0
389.2468
412.3582
670.957
830.1011
921.0953
967.3749
0.0 0.346683 0.06224
399.0547
418.3945
665.6716
832.4341
896.1979
992.5169
0.0 0.346683 0.124481
425.9818
437.9497
650.0318
800.6537
901.0939
1020.9596
0.0 0.346683 0.186721
464.227
473.5186
624.7446
736.5471
939.0123
1034.9313
0.0 0.346683 0.248962
507.621
525.6164
591.1217
663.958
979.5218
1031.7172
0.0 0.346683 -0.311202
551.1607
551.1607
591.1757
591.1757
1012.2064
1012.2064
0.0 0.462245 0.0
446.3063
509.0349
713.7394
874.2327
933.1572
1026.7897
0.0 0.462245 0.06224
455.0935
507.7324
708.4337
847.9129
950.1624
1040.25
0.0 0.462245 0.124481
479.533
508.2076
692.8693
794.4314
983.7745
1065.851
0.0 0.462245 0.186721
514.897
519.8622
668.0377
730.4803
1021.9718
1085.3658
0.0 0.462245 0.248962
550.2041
555.6911
635.4461
663.07
1056.3465
1090.8554
0.0 0.462245 -0.311202
597.1005
597.1005
599.9922
599.9922
1080.618
1080.618
0.0 -0.577806 0.0
464.2787
554.5285
728.8811
826.4983
966.4786
1060.7631
0.0 -0.577806 0.06224
472.7966
549.651
723.5129
810.5526
978.5917
1070.7156
0.0 -0.577806 0.124481
496.575
540.9811
707.8125
769.6933
1009.188
1091.5913
0.0 -0.577806 0.186721
531.1775
541.0131
682.8889
714.8923
1046.5663
1108.9797
0.0 -0.577806 0.248962
559.9516
571.3195
650.3547
655.1206
1080.5157
1114.1757
0.0 -0.577806 -0.311202
600.0636
600.0636
612.266
612.266
1104.326
1104.326
0.100079 0.173342 0.0
256.1653
279.3053
525.6674
640.1102
698.9155
1076.1439
0.100079 0.173342 0.06224
274.7636
291.7976
542.0681
642.6281
690.6972
1069.8753
0.100079 0.173342 0.124481
320.3765
324.8213
563.4348
666.258
669.2442
1050.4266
0.100079 0.173342 0.186721
369.3044
377.4837
552.6461
626.8606
738.6561
1016.3231
0.100079 0.173342 0.248962
416.8211
435.1178
525.1941
576.1942
822.2084
966.3407
0.100079 0.173342 -0.311202
455.5486
455.5486
525.3383
525.3383
900.6863
900.6863
0.100079 0.288903 0.0
373.6114
400.7137
631.2945
795.5195
846.9785
1000.5493
0.100079 0.288903 0.06224
376.563
412.2284
635.0673
793.2241
840.0697
1006.6893
0.100079 0.288903 0.124481
392.2907
440.1535
637.3424
764.7857
851.1388
1016.0785
0.100079 0.288903 0.186721
425.4098
476.3618
626.8557
711.4999
888.5821
1016.4066
0.100079 0.288903 0.248962
471.6935
511.1519
606.5884
652.3096
933.3257
1002.2351
0.100079 0.288903 -0.311202
513.972
513.972
607.0604
607.0604
973.4356
973.4356
0.100079 0.404464 0.0
479.0714
479.9394
706.497
894.0045
907.1043
979.631
0.100079 0.404464 0.06224
465.4043
499.404
704.855
855.5579
928.8492
998.2542
0.100079 0.404464 0.124481
459.9021
525.9883
694.8164
801.2878
956.345
1028.858
0.100079 0.404464 0.186721
469.7128
557.0328
669.8805
747.4889
989.6559
1049.9198
0.100079 0.404464 0.248962
498.8274
574.8531
643.8202
701.1014
1021.65
1055.4514
0.100079 0.404464 -0.311202
542.4854
542.4854
662.3584
662.3584
1045.1655
1045.1655
0.100079 0.520025 0.0
517.8547
556.8487
746.8665
827.6561
944.9501
1043.3248
0.100079 0.520025 0.06224
513.455
562.3951
735.9794
817.206
958.7369
1052.1278
0.100079 0.520025 0.124481
503.6968
580.7783
704.1469
794.0328
990.9453
1071.4146
0.100079 0.520025 0.186721
500.5197
608.286
659.3179
764.386
1028.4492
1088.2263
0.100079 0.520025 0.248962
514.9624
596.7383
654.3328
729.5772
1061.7366
1093.7063
0.100079 0.520025 -0.311202
549.596
549.596
691.5068
691.5068
1084.6313
1084.6313
0.200158 0.346683 0.0
469.2472
533.7276
690.0278
885.6743
919.043
941.47
0.200158 0.346683 0.06224
462.2558
539.8779
700.027
840.0666
944.6858
957.2703
0.200158 0.346683 0.124481
452.4836
555.8227
717.0321
778.527
956.0887
996.6126
0.200158 0.346683 0.186721
456.7706
572.1047
721.2821
722.9282
976.6381
1020.9375
0.200158 0.346683 0.248962
482.4269
565.1197
690.6245
713.9037
1000.8557
1028.3327
0.200158 0.346683 -0.311202
525.0057
525.0057
697.2927
697.2927
1020.2812
1020.2812
0.200158 0.462245 0.0
560.5851
619.6528
765.0122
829.5243
909.9491
1006.1581
0.200158 0.462245 0.06224
543.4526
628.1981
762.5425
811.6048
935.4437
1009.4829
0.200158 0.462245 0.124481
513.9221
637.5293
733.5357
810.5232
972.8217
1021.0669
0.200158 0.462245 0.186721
494.8079
617.4335
722.5174
810.2257
1003.7173
1037.327
0.200158 0.462245 0.248962
497.6225
569.9014
743.3513
795.9452
1028.3131
1046.9212
0.200158 0.462245 -0.311202
524.8649
524.8649
771.4566
771.4566
1043.8208
1043.8208
0.200158 0.577806 0.0
612.1974
647.3531
776.8271
804.7826
908.5855
1025.1877
0.200158 0.577806 0.06224
585.178
668.4036
733.5133
834.9279
922.9202
1028.2537
0.200158 0.577806 0.124481
546.0967
674.1642
698.2883
854.0368
957.2035
1037.834
0.200158 0.577806 0.186721
516.5937
615.0015
730.9467
850.2424
995.9678
1049.8981
0.200158 0.577806 0.248962
507.5656
562.2572
765.9283
830.0106
1028.3569
1055.5862
0.200158 0.577806 -0.311202
523.798
523.798
800.2777
800.2777
1048.8738
1048.8738
0.300237 0.520025 0.0
645.3548
738.4991
746.1604
822.6925
874.3493
1003.672
0.300237 0.520025 0.06224
621.9175
703.567
758.2493
844.158
899.3537
1000.2158
0.300237 0.520025 0.124481
576.4822
647.0001
776.1942
881.5955
943.5036
993.1255
0.300237 0.520025 0.186721
535.8805
590.4012
802.3101
901.2292
980.9845
993.0759
0.300237 0.520025 0.248962
513.5417
543.9795
833.7036
891.4964
1003.9102
1003.9198
0.300237 0.520025 -0.311202
516.2894
516.2894
865.4658
865.4658
1010.7183
1010.7183
P	=	14000.16	V	=	60.99666	E	=	-653.74062541
0.0 0.0 0.0
-0.0
-0.0
-0.0
537.3187
537.3187
1171.7249
0.0 0.0 0.062226
82.4641
82.4641
203.7496
531.0423
531.0423
1159.1814
0.0 0.0 0.124453
162.2848
162.2848
399.1312
511.6945
511.6945
1122.0941
0.0 0.0 0.186679
237.9692
237.9692
478.5141
478.5141
578.6099
1061.4721
0.0 0.0 0.248905
308.9969
308.9969
431.9934
431.9934
736.4655
977.5998
0.0 0.0 -0.311131
374.4455
374.4455
374.4455
374.4455
869.6122
869.6122
0.0 0.115567 0.0
155.8322
158.4288
359.5958
563.9876
613.351
1149.224
0.0 0.115567 0.062226
179.4655
195.6271
400.523
557.9095
606.7324
1138.5852
0.0 0.115567 0.124453
229.331
261.9567
507.6306
539.3453
586.7762
1106.8621
0.0 0.115567 0.186679
289.8722
326.1754
507.9319
551.5393
642.2696
1054.356
0.0 0.115567 0.248905
352.0064
388.9083
464.4631
505.2464
772.2379
981.0326
0.0 0.115567 -0.311131
411.3634
411.3634
449.595
449.595
886.694
886.694
0.0 0.231134 0.0
297.0918
299.1971
625.0416
656.8859
777.7244
1085.7094
0.0 0.231134 0.062226
309.7536
317.1814
619.3628
675.2208
768.7203
1081.9174
0.0 0.231134 0.124453
343.4639
362.8401
602.3153
711.6739
754.9337
1068.9761
0.0 0.231134 0.186679
389.4907
422.8422
574.1775
682.711
807.9903
1043.5874
0.0 0.231134 0.248905
440.2251
489.4785
536.1094
625.0105
880.646
1003.2979
0.0 0.231134 -0.311131
490.4003
490.4003
558.4386
558.4386
948.0443
948.0443
0.0 0.346701 0.0
399.4513
422.8846
688.1093
851.958
945.0976
993.7251
0.0 0.346701 0.062226
409.4651
429.264
682.681
854.0314
920.0915
1019.3692
0.0 0.346701 0.124453
436.9579
449.5973
666.6083
821.2647
925.356
1048.6593
0.0 0.346701 0.186679
476.0221
486.1142
640.6053
755.6801
964.2167
1063.0524
0.0 0.346701 0.248905
520.3979
539.4421
606.0378
681.2886
1005.8551
1059.6835
0.0 0.346701 -0.311131
565.0092
565.0092
606.6352
606.6352
1039.5245
1039.5245
0.0 0.462268 0.0
458.6872
522.0544
732.3022
897.5056
958.3193
1054.8124
0.0 0.462268 0.062226
467.6785
520.9225
726.8681
870.5047
975.747
1068.6764
0.0 0.462268 0.124453
492.6521
521.8035
710.9087
815.7223
1010.1135
1095.0614
0.0 0.462268 0.186679
528.7365
534.0212
685.4171
750.2244
1049.2251
1115.0888
0.0 0.462268 0.248905
565.2371
570.3567
651.9635
681.1031
1084.5785
1120.5291
0.0 0.462268 -0.311131
612.6757
612.6757
616.3575
616.3575
1109.727
1109.727
0.0 -0.577835 0.0
477.4712
568.838
747.9705
848.1767
992.9249
1090.1509
0.0 -0.577835 0.062226
486.2008
564.0295
742.4817
831.9365
1005.2039
1100.4135
0.0 -0.577835 0.124453
510.5182
555.5224
726.4061
790.2856
1036.3078
1121.9035
0.0 -0.577835 0.186679
545.8149
555.8474
700.8487
734.3167
1074.488
1139.6585
0.0 -0.577835 0.248905
575.4155
586.7238
667.4887
673.1193
1109.4021
1144.6781
0.0 -0.577835 -0.311131
616.6326
616.6326
628.5117
628.5117
1134.1538
1134.1538
0.100084 0.173351 0.0
262.8449
285.8271
539.2639
656.5013
715.8934
1106.1818
0.100084 0.173351 0.062226
281.9911
298.6113
555.9742
659.2375
707.5143
1099.7542
0.100084 0.173351 0.124453
328.6317
332.4221
577.554
682.5744
687.095
1079.7712
0.100084 0.173351 0.186679
378.0053
386.8181
566.3154
642.2966
758.7936
1044.6608
0.100084 0.173351 0.248905
426.7525
445.6704
538.0769
590.3813
844.8333
993.1766
0.100084 0.173351 -0.311131
466.5345
466.5345
538.1954
538.1954
925.5895
925.5895
0.100084 0.288918 0.0
383.2036
410.3349
647.0647
816.2689
868.8041
1028.0355
0.100084 0.288918 0.062226
386.3826
422.1384
650.8405
813.5686
862.2097
1034.3353
0.100084 0.288918 0.124453
402.6562
450.7384
653.0528
784.1321
874.1293
1043.9778
0.100084 0.288918 0.186679
436.4613
487.8005
642.2994
729.6404
912.6538
1044.2655
0.100084 0.288918 0.248905
483.5952
523.427
621.6828
668.9702
958.6461
1029.5981
0.100084 0.288918 -0.311131
526.535
526.535
622.4217
622.4217
999.9084
999.9084
0.100084 0.404485 0.0
491.3269
492.1692
724.3039
917.7372
931.5495
1006.1031
0.100084 0.404485 0.062226
477.4787
512.1469
722.5998
878.2274
954.0008
1025.1992
0.100084 0.404485 0.124453
472.143
539.3845
712.3717
822.5123
982.1927
1056.7037
0.100084 0.404485 0.186679
482.3457
571.0998
687.1157
767.1463
1016.2636
1078.3585
0.100084 0.404485 0.248905
512.1296
589.3922
660.6705
719.2509
1049.0513
1083.9447
0.100084 0.404485 -0.311131
556.684
556.684
679.423
679.423
1073.2523
1073.2523
0.100084 0.520052 0.0
531.6838
571.2455
765.9922
849.5326
970.5933
1072.044
0.100084 0.520052 0.062226
527.1215
577.1747
754.9175
838.8219
984.6322
1081.1087
0.100084 0.520052 0.124453
517.2478
596.2312
722.5592
814.9885
1017.4659
1100.9276
0.100084 0.520052 0.186679
514.196
624.37
676.9373
784.4496
1055.7951
1118.0649
0.100084 0.520052 0.248905
529.0999
612.8119
671.6019
748.6285
1089.9845
1123.3924
0.100084 0.520052 -0.311131
564.6092
564.6092
709.5649
709.5649
1113.7222
1113.7222
0.200168 0.346701 0.0
481.2836
546.3781
707.1269
908.4805
943.9579
967.3602
0.200168 0.346701 0.062226
474.3226
552.6621
717.2441
862.1393
970.6786
982.8885
0.200168 0.346701 0.124453
464.6196
568.953
734.4892
799.2451
982.368
1023.3595
0.200168 0.346701 0.186679
469.085
585.6473
740.5222
740.6471
1003.3121
1048.3877
0.200168 0.346701 0.248905
495.2103
578.9907
708.6984
731.4478
1027.9502
1055.9745
0.200168 0.346701 -0.311131
538.5252
538.5252
714.7957
714.7957
1047.7418
1047.7418
0.200168 0.462268 0.0
575.1215
635.0039
784.1225
851.7207
934.0545
1033.73
0.200168 0.462268 0.062226
557.6865
643.7641
781.8793
833.029
960.3088
1037.1258
0.200168 0.462268 0.124453
527.7038
653.3215
753.0138
831.0695
998.804
1048.8763
0.200168 0.462268 0.186679
508.3353
633.2675
741.4561
830.5515
1030.5098
1065.2966
0.200168 0.462268 0.248905
511.2778
585.0711
762.3307
815.9103
1055.6379
1074.8836
0.200168 0.462268 -0.311131
539.124
539.124
790.9015
790.9015
1071.5426
1071.5426
0.200168 0.577835 0.0
628.249
663.8769
797.4146
824.9852
932.9231
1053.0926
0.200168 0.577835 0.062226
600.5388
685.6329
752.7106
856.2766
947.5332
1056.2479
0.200168 0.577835 0.124453
560.702
692.0167
716.3545
875.9245
982.5079
1066.0228
0.200168 0.577835 0.186679
530.7213
631.5913
749.7676
871.9933
1022.108
1078.1812
0.200168 0.577835 0.248905
521.6339
577.6864
785.487
851.1531
1055.2937
1083.682
0.200168 0.577835 -0.311131
538.321
538.321
820.6239
820.6239
1076.4894
1076.4894
0.300252 0.520052 0.0
662.3554
757.2975
766.0263
843.6817
897.0287
1030.6464
0.300252 0.520052 0.062226
638.3798
721.9263
778.0068
865.7036
922.7391
1027.0809
0.300252 0.520052 0.124453
591.9869
664.1474
796.2876
904.0451
968.0914
1019.7106
0.300252 0.520052 0.186679
550.6028
606.3762
822.8778
924.1187
1006.5146
1019.371
0.300252 0.520052 0.248905
527.8652
558.993
854.8666
914.097
1029.9533
1030.1231
0.300252 0.520052 -0.311131
530.7091
530.7091
887.3532
887.3532
1036.925
1036.925
P	=	15000.29	V	=	59.697	E	=	-653.61256176
0.0 0.0 0.0
-0.0
-0.0
0.0
549.9367
549.9367
1202.6259
0.0 0.0 0.062211
84.3692
84.3692
209.0186
543.6011
543.6011
1189.7176
0.0 0.0 0.124422
166.0305
166.0305
409.3959
523.9877
523.9877
1151.5434
0.0 0.0 0.186633
243.4955
243.4955
490.1583
490.1583
593.4116
1089.1434
0.0 0.0 0.248844
316.2859
316.2859
442.5139
442.5139
755.2767
1002.8636
0.0 0.0 -0.311056
383.4504
383.4504
383.4504
383.4504
891.9095
891.9095
0.0 0.115572 0.0
159.699
162.0124
368.3327
577.1661
627.3085
1179.4012
0.0 0.115572 0.062211
183.5182
200.3757
410.4242
571.0041
620.6076
1168.4793
0.0 0.115572 0.124422
234.4961
267.953
520.5198
552.121
600.3554
1135.8828
0.0 0.115572 0.186633
296.42
333.4246
520.0256
564.3767
658.7574
1081.8816
0.0 0.115572 0.248844
360.0595
397.6052
475.4619
516.967
792.081
1006.4698
0.0 0.115572 -0.311056
420.9529
420.9529
459.8579
459.8579
909.541
909.541
0.0 0.231145 0.0
304.0815
306.4551
639.6676
673.0447
795.4284
1113.8919
0.0 0.231145 0.062211
316.9947
324.9952
633.8638
691.7829
786.3367
1110.0361
0.0 0.231145 0.124422
351.3804
371.7501
616.4162
728.4295
773.2152
1096.7893
0.0 0.231145 0.186633
398.3604
432.8732
587.5664
698.3817
828.3706
1070.6604
0.0 0.231145 0.248844
450.2196
500.7885
548.4973
639.4006
903.02
1029.1445
0.0 0.231145 -0.311056
501.6074
501.6074
571.2737
571.2737
972.2822
972.2822
0.0 0.346717 0.0
409.4377
432.9769
704.4628
872.9309
968.138
1019.0938
0.0 0.346717 0.062211
419.6462
439.7216
698.8905
874.7249
943.1188
1045.1745
0.0 0.346717 0.124422
447.6693
460.8656
682.3931
841.0365
948.7442
1075.2415
0.0 0.346717 0.186633
487.4879
498.3082
655.7157
774.0654
988.4315
1089.995
0.0 0.346717 0.248844
532.7489
552.775
620.29
697.9403
1031.0685
1086.431
0.0 0.346717 -0.311056
578.3117
578.3117
621.4957
621.4957
1065.6373
1065.6373
0.0 0.46229 0.0
470.8444
534.576
749.9963
919.9313
982.4399
1081.8657
0.0 0.46229 0.062211
480.0256
533.6275
744.4188
892.2713
1000.3091
1096.0995
0.0 0.46229 0.124422
505.5055
534.9319
728.0547
836.2503
1035.4179
1123.1952
0.0 0.46229 0.186633
542.2776
547.6912
701.963
769.2582
1075.3759
1143.6487
0.0 0.46229 0.248844
579.7112
584.6548
667.7952
698.46
1111.617
1148.9694
0.0 0.46229 -0.311056
627.7456
627.7456
632.0909
632.0909
1137.5875
1137.5875
0.0 -0.577862 0.0
490.4404
582.6477
766.1626
869.0434
1018.2824
1118.5688
0.0 -0.577862 0.062211
499.364
577.9075
760.5334
852.5442
1030.736
1129.1127
0.0 -0.577862 0.124422
524.1924
569.5563
744.0676
810.1696
1062.3422
1151.1458
0.0 -0.577862 0.186633
560.1641
570.1409
717.9473
753.0777
1101.2708
1169.1765
0.0 -0.577862 0.248844
590.2813
601.7867
683.9368
690.4661
1137.0717
1173.9418
0.0 -0.577862 -0.311056
632.5607
632.5607
644.2762
644.2762
1162.7197
1162.7197
0.100089 0.173359 0.0
269.2648
292.1225
552.3224
672.1442
732.0456
1135.0052
0.100089 0.173359 0.062211
288.9759
305.1894
569.3016
675.1292
723.5329
1128.4407
0.100089 0.173359 0.124422
336.6489
339.742
591.0269
698.1595
704.2396
1107.9656
0.100089 0.173359 0.186633
386.3326
395.8546
579.3566
657.0791
778.0901
1071.8699
0.100089 0.173359 0.248844
436.2036
455.8093
550.374
603.9876
866.4571
1018.8849
0.100089 0.173359 -0.311056
476.9816
476.9816
550.5319
550.5319
949.3925
949.3925
0.100089 0.288931 0.0
392.3997
419.6573
662.1265
836.1426
889.7325
1054.4816
0.100089 0.288931 0.062211
395.8494
431.7337
665.8943
833.0274
883.51
1060.9137
0.100089 0.288931 0.124422
412.7177
460.9782
668.027
802.6557
896.2846
1070.756
0.100089 0.288931 0.186633
447.1892
498.8214
657.0156
747.0447
935.8011
1070.9554
0.100089 0.288931 0.248844
495.077
535.183
636.0994
684.9622
982.9161
1055.7742
0.100089 0.288931 -0.311056
538.5622
538.5622
637.1505
637.1505
1025.2317
1025.2317
0.100089 0.404504 0.0
503.0912
504.0868
741.2807
940.4835
955.1231
1031.6296
0.100089 0.404504 0.062211
489.1663
524.4896
739.5072
900.0162
978.2179
1051.1462
0.100089 0.404504 0.124422
484.0262
552.3728
729.0856
842.9228
1007.0779
1083.4678
0.100089 0.404504 0.186633
494.616
584.7236
703.5589
786.0269
1041.8455
1105.6431
0.100089 0.404504 0.248844
525.0058
603.4091
676.8427
736.6572
1075.3407
1111.2446
0.100089 0.404504 -0.311056
570.3682
570.3682
695.8144
695.8144
1100.1604
1100.1604
0.100089 0.520076 0.0
545.2065
585.1274
784.2262
870.6242
995.1941
1099.7972
0.100089 0.520076 0.062211
540.4535
591.4569
772.9761
859.6451
1009.4851
1109.099
0.100089 0.520076 0.124422
530.441
611.1906
740.1511
835.1247
1042.9271
1129.3893
0.100089 0.520076 0.186633
527.4894
639.9512
693.8356
803.6921
1082.0346
1146.7789
0.100089 0.520076 0.248844
542.7973
628.2999
688.3004
766.932
1117.0675
1151.8955
0.100089 0.520076 -0.311056
579.1058
579.1058
726.9871
726.9871
1141.6146
1141.6146
0.200177 0.346717 0.0
492.8296
558.5962
723.4676
930.289
967.9974
992.3509
0.200177 0.346717 0.062211
485.9347
565.0186
733.6828
883.3269
995.7736
1007.4994
0.200177 0.346717 0.124422
476.3642
581.6546
751.1278
819.1463
1007.7462
1048.9926
0.200177 0.346717 0.186633
481.0255
598.7264
757.2787
759.2478
1029.0517
1074.6631
0.200177 0.346717 0.248844
507.5665
592.3313
726.0632
748.1857
1054.0327
1082.4447
0.200177 0.346717 -0.311056
551.5359
551.5359
731.5596
731.5596
1074.0958
1074.0958
0.200177 0.46229 0.0
589.1187
649.8628
802.413
873.1751
957.1811
1060.3444
0.200177 0.46229 0.062211
571.4191
658.8156
800.4014
853.6786
984.1698
1063.8035
0.200177 0.46229 0.124422
541.0327
668.5915
771.7261
850.7437
1023.7419
1075.6894
0.200177 0.46229 0.186633
521.4273
648.5528
759.6876
849.9865
1056.2611
1092.2124
0.200177 0.46229 0.248844
524.4739
599.6925
780.6307
835.055
1081.9162
1101.7617
0.200177 0.46229 -0.311056
552.8757
552.8757
809.6207
809.6207
1098.1922
1098.1922
0.200177 0.577862 0.0
643.7564
679.9039
817.3049
844.3241
956.3236
1080.0055
0.200177 0.577862 0.062211
615.4086
702.293
771.2163
876.7366
971.1877
1083.2431
0.200177 0.577862 0.124422
574.8509
709.2224
733.785
896.8644
1006.8092
1093.1958
0.200177 0.577862 0.186633
544.3987
647.5746
767.9374
892.8288
1047.2052
1105.4237
0.200177 0.577862 0.248844
535.2303
592.5543
804.4044
871.4981
1081.1638
1110.7144
0.200177 0.577862 -0.311056
552.3309
552.3309
840.2873
840.2873
1103.0316
1103.0316
0.300266 0.520076 0.0
678.7832
775.4072
785.2515
863.9329
918.8626
1056.5781
0.300266 0.520076 0.062211
654.2963
739.6776
797.0287
886.4545
945.2327
1052.9078
0.300266 0.520076 0.124422
606.9758
680.7222
815.5926
925.6001
991.702
1045.2974
0.300266 0.520076 0.186633
564.8186
621.7929
842.6846
946.0826
1031.01
1044.7284
0.300266 0.520076 0.248844
541.6789
573.4642
875.3358
935.8895
1054.9543
1055.3685
0.300266 0.520076 -0.311056
544.6057
544.6057
908.5458
908.5458
1062.1228
1062.1228

weight
   0.0000000   0.0000000   0.0000000   0.0020000   
   0.0000000   0.0000000   0.1000000   0.0040000   
   0.0000000   0.0000000   0.2000000   0.0040000   
   0.0000000   0.0000000   0.3000000   0.0040000   
   0.0000000   0.0000000   0.4000000   0.0040000   
   0.0000000   0.0000000  -0.5000000   0.0020000   
   0.0000000   0.1000000   0.0000000   0.0120000   
   0.0000000   0.1000000   0.1000000   0.0240000   
   0.0000000   0.1000000   0.2000000   0.0240000   
   0.0000000   0.1000000   0.3000000   0.0240000   
   0.0000000   0.1000000   0.4000000   0.0240000   
   0.0000000   0.1000000  -0.5000000   0.0120000   
   0.0000000   0.2000000   0.0000000   0.0120000   
   0.0000000   0.2000000   0.1000000   0.0240000   
   0.0000000   0.2000000   0.2000000   0.0240000   
   0.0000000   0.2000000   0.3000000   0.0240000   
   0.0000000   0.2000000   0.4000000   0.0240000   
   0.0000000   0.2000000  -0.5000000   0.0120000   
   0.0000000   0.3000000   0.0000000   0.0120000   
   0.0000000   0.3000000   0.1000000   0.0240000   
   0.0000000   0.3000000   0.2000000   0.0240000   
   0.0000000   0.3000000   0.3000000   0.0240000   
   0.0000000   0.3000000   0.4000000   0.0240000   
   0.0000000   0.3000000  -0.5000000   0.0120000   
   0.0000000   0.4000000   0.0000000   0.0120000   
   0.0000000   0.4000000   0.1000000   0.0240000   
   0.0000000   0.4000000   0.2000000   0.0240000   
   0.0000000   0.4000000   0.3000000   0.0240000   
   0.0000000   0.4000000   0.4000000   0.0240000   
   0.0000000   0.4000000  -0.5000000   0.0120000   
   0.0000000  -0.5000000   0.0000000   0.0060000   
   0.0000000  -0.5000000   0.1000000   0.0120000   
   0.0000000  -0.5000000   0.2000000   0.0120000   
   0.0000000  -0.5000000   0.3000000   0.0120000   
   0.0000000  -0.5000000   0.4000000   0.0120000   
   0.0000000  -0.5000000  -0.5000000   0.0060000   
   0.1000000   0.1000000   0.0000000   0.0120000   
   0.1000000   0.1000000   0.1000000   0.0240000   
   0.1000000   0.1000000   0.2000000   0.0240000   
   0.1000000   0.1000000   0.3000000   0.0240000   
   0.1000000   0.1000000   0.4000000   0.0240000   
   0.1000000   0.1000000  -0.5000000   0.0120000   
   0.1000000   0.2000000   0.0000000   0.0240000   
   0.1000000   0.2000000   0.1000000   0.0480000   
   0.1000000   0.2000000   0.2000000   0.0480000   
   0.1000000   0.2000000   0.3000000   0.0480000   
   0.1000000   0.2000000   0.4000000   0.0480000   
   0.1000000   0.2000000  -0.5000000   0.0240000   
   0.1000000   0.3000000   0.0000000   0.0240000   
   0.1000000   0.3000000   0.1000000   0.0480000   
   0.1000000   0.3000000   0.2000000   0.0480000   
   0.1000000   0.3000000   0.3000000   0.0480000   
   0.1000000   0.3000000   0.4000000   0.0480000   
   0.1000000   0.3000000  -0.5000000   0.0240000   
   0.1000000   0.4000000   0.0000000   0.0240000   
   0.1000000   0.4000000   0.1000000   0.0480000   
   0.1000000   0.4000000   0.2000000   0.0480000   
   0.1000000   0.4000000   0.3000000   0.0480000   
   0.1000000   0.4000000   0.4000000   0.0480000   
   0.1000000   0.4000000  -0.5000000   0.0240000   
   0.2000000   0.2000000   0.0000000   0.0120000   
   0.2000000   0.2000000   0.1000000   0.0240000   
   0.2000000   0.2000000   0.2000000   0.0240000   
   0.2000000   0.2000000   0.3000000   0.0240000   
   0.2000000   0.2000000   0.4000000   0.0240000   
   0.2000000   0.2000000  -0.5000000   0.0120000   
   0.2000000   0.3000000   0.0000000   0.0240000   
   0.2000000   0.3000000   0.1000000   0.0480000   
   0.2000000   0.3000000   0.2000000   0.0480000   
   0.2000000   0.3000000   0.3000000   0.0480000   
   0.2000000   0.3000000   0.4000000   0.0480000   
   0.2000000   0.3000000  -0.5000000   0.0240000   
   0.2000000   0.4000000   0.0000000   0.0120000   
   0.2000000   0.4000000   0.1000000   0.0240000   
   0.2000000   0.4000000   0.2000000   0.0240000   
   0.2000000   0.4000000   0.3000000   0.0240000   
   0.2000000   0.4000000   0.4000000   0.0240000   
   0.2000000   0.4000000  -0.5000000   0.0120000   
   0.3000000   0.3000000   0.0000000   0.0120000   
   0.3000000   0.3000000   0.1000000   0.0240000   
   0.3000000   0.3000000   0.2000000   0.0240000   
   0.3000000   0.3000000   0.3000000   0.0240000   
   0.3000000   0.3000000   0.4000000   0.0240000   
   0.3000000   0.3000000  -0.5000000   0.0120000   