Number of volumes (nv), q-vectors (nq), normal mode (np), formula units(nm)
12 84 6 1

P	=	-0.27	V	=	138.44622	E	=	-655.45768389
0.0 0.0 0.0
-0.0
-0.0
0.0
236.8224
236.8224
324.3899
0.0 0.0 0.062896
-94.464
-94.464
-81.8622
210.8105
210.8105
297.4716
0.0 0.0 0.125792
-147.5269
-147.5269
-107.3118
153.9002
153.9002
242.0188
0.0 0.0 0.188687
-126.8432
-126.8432
90.1586
130.3114
130.3114
221.9812
0.0 0.0 0.251583
87.7952
87.7952
158.4772
158.4772
213.778
251.3476
0.0 0.0 -0.314479
162.3971
162.3971
162.4233
162.4233
263.3086
263.4025
0.0 0.114903 0.0
-97.0956
17.0921
54.6459
229.3999
234.0903
294.1073
0.0 0.114903 0.062896
-129.3264
-84.657
-53.0961
205.8599
211.2367
269.8561
0.0 0.114903 0.125792
-159.33
-132.6018
-93.4241
152.1736
162.4037
221.8496
0.0 0.114903 0.188687
-131.6356
-108.2864
73.707
123.2223
141.9173
207.508
0.0 0.114903 0.251583
67.3197
99.3151
144.3873
163.1051
192.3277
233.3701
0.0 0.114903 -0.314479
144.9205
146.2513
164.0616
164.1759
241.0051
241.6217
0.0 0.229807 0.0
-145.6347
58.6855
119.094
221.3335
226.6375
231.744
0.0 0.229807 0.062896
-165.0595
-40.1401
105.6769
189.6102
214.3808
220.8092
0.0 0.229807 0.125792
-186.457
-89.7853
92.2418
126.4244
178.8081
202.3426
0.0 0.229807 0.188687
-167.756
-44.2979
80.6777
132.5897
163.6645
202.6886
0.0 0.229807 0.251583
-96.9628
91.9519
125.9148
175.7359
192.6251
221.6496
0.0 0.229807 -0.314479
72.703
81.9481
173.1786
173.529
224.6543
226.8093
0.0 0.34471 0.0
-97.0131
108.8261
187.0038
187.5523
234.8485
239.1146
0.0 0.34471 0.062896
-127.1356
82.4533
162.8646
180.4751
223.0915
227.0963
0.0 0.34471 0.125792
-162.5821
18.5318
109.5882
173.5272
191.3186
215.5994
0.0 0.34471 0.188687
-155.7848
76.2057
79.1041
179.8929
194.6573
223.5028
0.0 0.34471 0.251583
-94.9187
89.3865
153.7626
193.1439
232.4647
245.6957
0.0 0.34471 -0.314479
69.0672
75.4894
192.7914
193.037
253.2926
254.1672
0.0 0.459613 0.0
147.9687
151.543
206.42
241.1611
253.5166
260.7985
0.0 0.459613 0.062896
115.162
119.8611
185.6867
231.094
234.7197
249.5112
0.0 0.459613 0.125792
-59.5687
60.9486
145.2853
198.0495
218.3955
235.5705
0.0 0.459613 0.188687
-72.4484
94.8373
134.8356
188.5643
235.3405
250.4938
0.0 0.459613 0.251583
104.3379
159.2475
172.3282
209.7236
273.0311
282.1601
0.0 0.459613 -0.314479
159.3392
161.9818
213.5663
213.9445
293.9873
295.0807
0.0 -0.574517 0.0
162.4979
212.6586
213.9954
260.9408
263.188
272.1008
0.0 -0.574517 0.062896
131.7532
177.4119
197.512
240.3012
252.0988
258.8821
0.0 -0.574517 0.125792
63.8907
95.0939
162.3719
200.2157
234.8991
245.7252
0.0 -0.574517 0.188687
71.9872
94.7594
158.7643
191.3604
249.5645
265.2645
0.0 -0.574517 0.251583
149.5715
178.4445
190.0884
216.8051
289.8854
300.2006
0.0 -0.574517 -0.314479
193.6304
198.4794
222.2861
222.9608
312.4717
314.4172
0.099509 0.172355 0.0
-141.8717
36.9769
102.7191
223.1489
229.9784
244.1692
0.099509 0.172355 0.062896
-162.2926
-63.2889
82.3386
197.9064
211.6589
229.2918
0.099509 0.172355 0.125792
-183.556
-104.6281
56.3048
137.4555
173.5976
202.7538
0.099509 0.172355 0.188687
-160.4514
-69.5691
94.817
112.978
156.921
200.1853
0.099509 0.172355 0.251583
-72.6756
106.3031
116.5523
169.8455
185.7131
221.0941
0.099509 0.172355 -0.314479
99.9792
100.6589
167.5935
167.8063
224.7113
224.7673
0.099509 0.287258 0.0
-143.6247
79.7761
160.3075
184.9583
227.3949
232.4731
0.099509 0.287258 0.062896
-162.0887
50.1269
151.446
160.2214
217.4493
220.2215
0.099509 0.287258 0.125792
-184.7134
-44.2052
98.973
145.0304
188.4815
207.3142
0.099509 0.287258 0.188687
-173.1762
46.4695
64.7703
165.0873
179.832
212.266
0.099509 0.287258 0.251583
-119.1458
55.0722
140.923
181.337
213.8474
231.5562
0.099509 0.287258 -0.314479
-23.4525
14.6755
178.9557
179.5047
236.8677
237.6345
0.099509 0.402162 0.0
24.1735
125.8558
173.8469
206.3559
245.082
251.8378
0.099509 0.402162 0.062896
-80.4767
103.9607
153.7719
196.758
233.1866
238.7042
0.099509 0.402162 0.125792
-134.0804
65.3926
109.8021
181.3278
210.4309
222.6236
0.099509 0.402162 0.188687
-132.1602
84.0324
104.2133
181.2084
218.5087
232.5084
0.099509 0.402162 0.251583
-57.6003
105.68
164.8533
197.6287
251.2904
258.9409
0.099509 0.402162 -0.314479
98.8774
99.2006
199.4432
199.8704
269.821
270.1824
0.099509 0.517065 0.0
153.6402
164.3865
189.732
237.2785
254.4137
273.8082
0.099509 0.517065 0.062896
123.4276
136.6303
171.6766
222.874
242.0944
258.4148
0.099509 0.517065 0.125792
-29.8139
87.2633
136.4698
196.6065
224.8285
237.0543
0.099509 0.517065 0.188687
-55.0161
110.8961
131.4087
192.0836
238.5812
250.3353
0.099509 0.517065 0.251583
110.1388
157.466
180.1605
213.1324
275.3143
282.7926
0.099509 0.517065 -0.314479
159.6079
163.3914
217.6121
217.7979
295.3345
296.9362
0.199018 0.34471 0.0
-112.0953
109.1206
146.2783
184.7656
238.7455
247.8818
0.199018 0.34471 0.062896
-133.995
93.6026
125.9715
175.8171
228.7945
235.2128
0.199018 0.34471 0.125792
-161.8486
67.9251
78.6949
164.0479
211.9453
214.8511
0.199018 0.34471 0.188687
-155.8524
21.4986
107.2978
170.8004
212.1173
222.8531
0.199018 0.34471 0.251583
-107.1879
47.6897
158.8303
186.3845
239.1627
246.242
0.199018 0.34471 -0.314479
5.0871
18.9886
187.4509
188.1854
256.009
256.2739
0.199018 0.459613 0.0
34.2606
128.6346
142.3511
198.6066
240.7967
269.1971
0.199018 0.459613 0.062896
-67.4929
109.3658
129.1907
188.1995
229.3694
255.536
0.199018 0.459613 0.125792
-119.0271
63.0793
111.7253
173.6534
213.7002
230.6982
0.199018 0.459613 0.188687
-119.0198
46.538
134.221
180.2235
224.1455
230.0046
0.199018 0.459613 0.251583
-54.7594
81.6007
179.0753
199.4569
252.5491
255.1427
0.199018 0.459613 -0.314479
81.9566
84.1081
204.5507
204.616
267.7579
268.3599
0.199018 0.574517 0.0
103.8287
115.5027
156.1076
215.5776
231.1438
276.8698
0.199018 0.574517 0.062896
62.9208
99.2871
141.7842
203.0105
220.5101
262.4137
0.199018 0.574517 0.125792
-87.856
61.0698
121.4205
185.379
206.7869
235.8931
0.199018 0.574517 0.188687
-96.1056
59.5802
142.221
191.1991
220.4208
234.0545
0.199018 0.574517 0.251583
35.2633
98.5369
188.2766
210.5482
252.8202
258.0829
0.199018 0.574517 -0.314479
102.231
105.9821
215.3133
215.3415
269.636
270.7924
0.298528 0.517065 0.0
-44.6503
50.6134
171.0025
191.4841
215.6492
274.9269
0.298528 0.517065 0.062896
-76.3856
-21.5745
161.3147
181.2234
205.3645
261.7111
0.298528 0.517065 0.125792
-111.2052
-75.8065
150.1813
168.5525
192.2705
235.6369
0.298528 0.517065 0.188687
-111.1333
-77.8935
167.1957
181.4705
204.8431
225.742
0.298528 0.517065 0.251583
-68.5892
-29.1084
200.2696
207.6805
233.6522
239.2633
0.298528 0.517065 -0.314479
34.9734
37.2196
217.5224
217.9986
248.5795
248.656
P	=	500.01	V	=	121.3898	E	=	-655.43205856
0.0 0.0 0.0
-0.0
-0.0
0.0
277.8817
277.8817
431.0273
0.0 0.0 0.062774
-95.0039
-95.0039
-73.9063
254.214
254.214
406.2922
0.0 0.0 0.125549
-146.3777
-146.3776
-70.6754
204.1953
204.1953
355.4731
0.0 0.0 0.188323
-116.5001
-116.5001
160.5065
180.8642
180.8642
329.9786
0.0 0.0 0.251097
118.5926
118.5926
196.4108
196.4108
279.2134
341.2096
0.0 0.0 -0.313872
191.7813
191.7813
191.7874
191.7874
338.1795
338.232
0.0 0.115022 0.0
-89.5538
43.3756
99.4436
279.049
280.0315
404.3223
0.0 0.115022 0.062774
-123.7043
-74.3322
73.7589
258.4546
260.0121
382.8178
0.0 0.115022 0.125549
-150.2027
-123.373
62.567
215.5679
216.4923
339.7277
0.0 0.115022 0.188323
-106.4604
-84.0689
164.1589
190.6064
194.747
319.4426
0.0 0.115022 0.251097
119.9833
135.0995
195.8374
204.9417
266.3523
328.1783
0.0 0.115022 -0.313872
186.6339
187.1044
198.0295
198.1735
321.7685
322.3117
0.0 0.230045 0.0
-125.9402
94.7388
193.8754
285.1215
294.2551
345.3788
0.0 0.230045 0.062774
-148.7344
64.7345
191.0981
269.8404
276.3432
334.9615
0.0 0.230045 0.125549
-169.2591
-32.2826
196.3385
233.5192
238.5644
317.9529
0.0 0.230045 0.188323
-136.0304
87.3638
197.2164
222.0921
231.5915
315.1869
0.0 0.230045 0.251097
72.0106
170.5351
183.9077
225.315
283.0023
323.1009
0.0 0.230045 -0.313872
158.4624
161.1466
216.3754
216.72
316.6648
318.7811
0.0 0.345067 0.0
44.1161
147.5888
275.1605
298.789
303.154
326.2959
0.0 0.345067 0.062774
-73.5776
130.5129
271.5357
281.4094
284.9787
329.0211
0.0 0.345067 0.125549
-126.1721
108.8273
233.6538
257.4785
280.0218
329.7091
0.0 0.345067 0.188323
-108.8717
142.7816
202.2134
244.4216
301.9691
338.7134
0.0 0.345067 0.251097
86.361
189.3104
203.6713
248.9463
334.3992
353.0026
0.0 0.345067 -0.313872
163.2085
164.5474
242.1358
242.6257
354.3204
355.5263
0.0 0.46009 0.0
187.1916
204.8999
297.3211
314.852
332.6409
359.8959
0.0 0.46009 0.062774
166.0794
175.9446
279.213
298.8558
328.5049
354.5273
0.0 0.46009 0.125549
110.8643
132.9035
244.3302
268.1438
326.0021
350.9156
0.0 0.46009 0.188323
103.3222
159.0631
227.6087
257.3689
344.6756
365.9392
0.0 0.46009 0.251097
172.0406
223.5449
232.2164
268.5076
377.808
390.3256
0.0 0.46009 -0.313872
221.1296
222.2779
264.9657
265.2508
397.5679
398.5065
0.0 -0.575112 0.0
201.7513
260.8961
294.4929
322.1565
354.1908
373.4793
0.0 -0.575112 0.062774
177.5287
230.2602
280.0705
304.7288
347.4868
365.8425
0.0 -0.575112 0.125549
136.3842
166.6166
250.9617
271.6381
340.4455
360.5097
0.0 -0.575112 0.188323
151.3921
160.2932
242.2195
261.7017
358.1818
378.3229
0.0 -0.575112 0.251097
206.1344
229.5932
255.9432
276.3316
394.3776
406.7532
0.0 -0.575112 -0.313872
250.1023
252.062
273.9587
274.2987
415.3596
417.3596
0.099612 0.172534 0.0
-126.8354
79.0969
168.329
283.0688
288.2628
360.9738
0.099612 0.172534 0.062774
-149.67
35.4035
162.3184
267.1205
270.8538
346.2715
0.099612 0.172534 0.125549
-169.1698
-66.2095
164.8161
229.5277
234.3544
320.1674
0.099612 0.172534 0.188323
-131.0538
64.8054
195.9433
207.0017
217.6877
312.298
0.099612 0.172534 0.251097
88.637
160.6086
187.1087
219.8515
271.1687
320.3459
0.099612 0.172534 -0.313872
166.5135
167.4197
210.776
210.9197
313.1758
313.2403
0.099612 0.287556 0.0
-108.8308
128.7478
237.6906
298.9947
308.0427
310.641
0.099612 0.287556 0.062774
-133.9032
115.7545
235.8565
276.1288
288.3443
318.8128
0.099612 0.287556 0.125549
-160.2205
104.0655
228.6961
236.6794
268.5538
317.9701
0.099612 0.287556 0.188323
-139.0556
139.5129
192.2096
238.673
277.7428
324.0608
0.099612 0.287556 0.251097
25.558
169.9108
199.1695
241.8615
311.1029
335.4068
0.099612 0.287556 -0.313872
139.9202
142.0213
233.4466
233.9244
333.9743
334.9884
0.099612 0.402578 0.0
125.824
174.9631
282.8457
283.7565
325.6732
344.9715
0.099612 0.402578 0.062774
88.1298
162.1475
264.6068
277.5506
318.7276
339.9057
0.099612 0.402578 0.125549
-71.2261
147.2863
226.859
264.2598
310.9214
336.058
0.099612 0.402578 0.188323
-63.9673
171.3063
203.5452
258.6828
325.8664
347.295
0.099612 0.402578 0.251097
113.1418
190.7627
228.2399
264.9619
354.9803
366.6732
0.099612 0.402578 -0.313872
173.4181
174.221
260.1577
260.3241
372.699
372.7279
0.099612 0.517601 0.0
201.8991
222.2497
276.2632
310.0245
342.8335
370.8793
0.099612 0.517601 0.062774
179.5132
199.4906
260.6254
299.1912
336.4046
361.5455
0.099612 0.517601 0.125549
122.5177
168.9271
228.7923
278.711
330.6112
351.8451
0.099612 0.517601 0.188323
110.8998
188.1751
215.9682
272.5225
347.6508
365.4736
0.099612 0.517601 0.251097
171.1191
222.696
244.12
282.9905
380.4843
391.0335
0.099612 0.517601 -0.313872
215.7669
217.2296
279.7489
280.2401
399.335
400.8506
0.199225 0.345067 0.0
32.1059
171.9505
258.7353
269.3685
326.6091
335.8559
0.199225 0.345067 0.062774
-71.5523
166.1134
252.1383
255.7309
323.8446
326.7364
0.199225 0.345067 0.125549
-119.9272
162.8733
215.3179
253.1284
311.7319
322.3582
0.199225 0.345067 0.188323
-109.7347
170.0777
201.6379
257.0211
316.529
333.3082
0.199225 0.345067 0.251097
56.741
162.6236
233.4367
262.7567
340.5826
351.0592
0.199225 0.345067 -0.313872
137.3659
139.0362
257.9185
258.549
356.5397
356.6163
0.199225 0.46009 0.0
144.0824
209.6753
240.644
278.6648
329.9396
365.0115
0.199225 0.46009 0.062774
117.2987
201.7943
228.9434
274.945
324.0639
354.7479
0.199225 0.46009 0.125549
43.7114
184.2748
212.0971
271.6569
319.0872
337.7484
0.199225 0.46009 0.188323
27.9464
168.957
227.4811
276.7293
331.4093
341.3234
0.199225 0.46009 0.251097
112.4582
169.123
261.0224
285.345
356.2715
361.6962
0.199225 0.46009 -0.313872
157.8976
158.622
283.6356
283.8239
370.4299
370.9169
0.199225 0.575112 0.0
185.8058
221.5642
223.7523
298.3351
320.606
374.7833
0.199225 0.575112 0.062774
160.3139
209.1463
218.5215
292.6453
315.533
363.7277
0.199225 0.575112 0.125549
104.093
182.026
214.2811
286.3379
312.5311
345.0758
0.199225 0.575112 0.188323
85.2548
168.7583
234.4099
289.3675
329.2638
346.8145
0.199225 0.575112 0.251097
132.7243
175.4986
270.9616
297.7805
358.0316
365.9942
0.199225 0.575112 -0.313872
169.3862
170.7032
295.5739
295.9807
373.6584
374.7343
0.298837 0.517601 0.0
151.148
188.7852
249.8263
279.2956
304.7302
373.7838
0.298837 0.517601 0.062774
133.1456
175.8414
247.2187
276.4526
300.3214
362.9917
0.298837 0.517601 0.125549
91.5037
146.7062
248.5923
277.4313
298.7879
341.3817
0.298837 0.517601 0.188323
76.4353
129.789
266.6353
292.1765
314.3297
331.2703
0.298837 0.517601 0.251097
110.4294
136.2572
293.768
308.1446
338.0464
341.2544
0.298837 0.517601 -0.313872
136.1524
136.581
310.2643
310.5362
349.5352
349.5421
P	=	1000.19	V	=	111.47402	E	=	-655.38263648
0.0 0.0 0.0
-0.0
-0.0
-0.0
301.035
301.035
504.5743
0.0 0.0 0.062722
-91.0738
-91.0738
-59.5814
280.6477
280.6477
481.1121
0.0 0.0 0.125445
-138.2883
-138.2883
51.059
238.4773
238.4773
432.0638
0.0 0.0 0.188167
-98.9209
-98.9209
205.4776
217.1867
217.1867
402.1517
0.0 0.0 0.25089
139.3454
139.3454
223.8329
223.8329
323.6719
401.918
0.0 0.0 -0.313612
211.472
211.472
211.4874
211.4874
388.5432
388.6811
0.0 0.115102 0.0
-77.0115
62.347
128.5207
307.6243
312.0853
479.9863
0.0 0.115102 0.062722
-112.1304
-53.8011
118.8349
289.7844
295.4252
459.7886
0.0 0.115102 0.125445
-133.2725
-105.2887
132.2602
253.0977
259.5975
418.4284
0.0 0.115102 0.188167
-65.2887
-34.8243
218.2695
233.4584
235.715
394.0181
0.0 0.115102 0.25089
152.4365
161.4753
232.1612
236.2985
316.9188
392.4764
0.0 0.115102 -0.313612
215.0586
215.8181
223.0648
223.1342
376.8926
377.2057
0.0 0.230205 0.0
-94.3801
124.9686
244.3633
324.0487
344.4298
424.4885
0.0 0.230205 0.062722
-121.9178
106.435
246.9257
310.2821
330.3187
414.4007
0.0 0.230205 0.125445
-141.4016
86.1821
260.0973
282.1089
295.2822
397.572
0.0 0.230205 0.188167
-85.5447
134.4767
259.977
265.4285
296.1519
392.0123
0.0 0.230205 0.25089
138.6783
204.9988
238.5218
263.7567
344.8523
393.4169
0.0 0.230205 -0.313612
206.6432
209.5606
250.4695
250.6393
381.0848
382.183
0.0 0.345307 0.0
118.2521
180.4127
336.2421
343.883
378.2032
389.6482
0.0 0.345307 0.062722
80.9351
167.9753
331.048
336.2542
351.7808
400.5299
0.0 0.345307 0.125445
-60.1896
155.513
304.0512
305.231
350.8391
407.0796
0.0 0.345307 0.188167
42.4109
186.107
269.9303
290.8246
373.7679
416.6456
0.0 0.345307 0.25089
153.546
241.2944
248.1783
290.632
404.1405
427.0122
0.0 0.345307 -0.313612
215.8899
217.7803
279.9052
280.1627
424.7873
425.2717
0.0 0.46041 0.0
217.7961
241.4527
358.9135
360.688
396.0726
428.4904
0.0 0.46041 0.062722
201.0021
216.2878
341.2989
346.038
394.72
427.0026
0.0 0.46041 0.125445
166.0456
177.8474
307.1336
317.4026
397.5419
428.9881
0.0 0.46041 0.188167
161.7508
202.3399
285.9219
304.3728
418.0823
444.3201
0.0 0.46041 0.25089
215.8368
260.246
280.5731
309.1669
449.792
464.8396
0.0 0.46041 -0.313612
262.7552
263.8004
301.0967
301.3099
469.4141
469.9945
0.0 -0.575512 0.0
230.7153
293.8371
349.4323
367.4992
417.2446
443.3688
0.0 -0.575512 0.062722
210.993
266.381
335.8367
351.6392
413.0881
438.9055
0.0 -0.575512 0.125445
181.1271
211.5719
308.0989
320.9983
411.4204
438.3641
0.0 -0.575512 0.188167
198.3975
203.6402
295.316
308.4122
431.2303
456.1092
0.0 -0.575512 0.25089
244.5266
265.3176
299.5343
315.7742
466.0554
480.8598
0.0 -0.575512 -0.313612
287.0932
289.3966
308.6685
308.8773
487.2663
488.3186
0.099682 0.172654 0.0
-102.6334
109.4837
212.7407
320.8814
332.7172
439.5959
0.099682 0.172654 0.062722
-128.5927
87.4004
212.8889
307.1083
318.6513
425.899
0.099682 0.172654 0.125445
-145.7107
60.1286
224.9559
278.9541
284.7873
400.4457
0.099682 0.172654 0.188167
-84.9662
119.0726
253.2297
257.6445
272.361
388.7309
0.099682 0.172654 0.25089
143.0297
194.8905
236.1783
258.1002
330.3249
388.8283
0.099682 0.172654 -0.313612
208.248
209.0568
244.2609
244.9104
374.7172
374.7614
0.099682 0.287756 0.0
-37.4094
166.0631
290.4329
349.7167
368.8416
387.1334
0.099682 0.287756 0.062722
-86.871
158.558
291.1393
337.9561
346.818
392.6981
0.099682 0.287756 0.125445
-121.9051
156.032
291.5009
298.031
331.8882
395.0817
0.099682 0.287756 0.188167
-83.7313
187.1768
260.1036
288.9866
346.7494
400.8455
0.099682 0.287756 0.25089
124.5725
223.9812
246.7768
287.3321
378.5268
407.8566
0.099682 0.287756 -0.313612
195.0783
197.0125
275.123
275.9412
402.4316
402.9146
0.099682 0.402859 0.0
175.6087
212.4539
335.6169
352.9387
385.0072
411.702
0.099682 0.402859 0.062722
149.0899
204.257
328.7774
335.0241
382.5975
410.7263
0.099682 0.402859 0.125445
93.5765
197.7611
293.022
320.4917
381.7552
412.9755
0.099682 0.402859 0.188167
99.8204
220.9724
265.5735
312.7854
399.0364
425.1513
0.099682 0.402859 0.25089
168.264
241.4625
274.9153
313.2559
426.7732
441.1712
0.099682 0.402859 -0.313612
220.3159
220.8494
304.1544
304.635
444.2951
444.4345
0.099682 0.517961 0.0
237.3297
260.9766
334.9084
359.6282
405.3126
439.9296
0.099682 0.517961 0.062722
219.0384
241.8591
318.8572
351.8213
401.9048
433.8974
0.099682 0.517961 0.125445
174.5217
220.0084
286.5175
335.2414
401.744
429.7815
0.099682 0.517961 0.188167
165.1882
238.6878
268.8759
327.3954
421.0994
443.8817
0.099682 0.517961 0.25089
211.5363
265.4896
288.9449
331.1799
452.8877
465.8569
0.099682 0.517961 -0.313612
252.9896
254.4304
323.3029
323.5711
471.8749
472.7133
0.199363 0.345307 0.0
125.289
216.5992
310.67
344.6718
388.3579
399.8079
0.199363 0.345307 0.062722
95.3269
214.7975
310.7493
325.0924
391.1464
392.7822
0.199363 0.345307 0.125445
-27.7636
217.9281
286.8354
312.5774
382.3037
396.5755
0.199363 0.345307 0.188167
41.3297
228.4855
265.4393
315.6783
389.3131
409.11
0.199363 0.345307 0.25089
135.0733
218.9586
286.3898
316.6487
412.0721
424.3394
0.199363 0.345307 -0.313612
191.1988
192.5142
308.4353
309.1231
427.6442
427.7024
0.199363 0.46041 0.0
199.2657
256.8587
308.195
333.6525
392.1675
432.8181
0.199363 0.46041 0.062722
178.437
253.606
295.8411
333.9194
389.8858
424.6378
0.199363 0.46041 0.125445
136.3743
245.4124
276.2814
336.4223
390.788
412.3037
0.199363 0.46041 0.188167
128.1645
229.3142
288.3077
340.917
405.097
418.008
0.199363 0.46041 0.25089
167.5911
220.3259
317.1389
344.021
429.0871
436.0075
0.199363 0.46041 -0.313612
204.2465
204.8139
338.3986
338.5121
442.898
443.2112
0.199363 0.575512 0.0
237.1079
270.9889
285.063
354.743
382.6665
443.2419
0.199363 0.575512 0.062722
214.6823
270.9395
272.3365
353.3102
380.7446
434.441
0.199363 0.575512 0.125445
171.4733
244.8768
274.3803
352.7238
383.731
420.6452
0.199363 0.575512 0.188167
155.354
226.7116
295.1819
354.6281
403.0837
424.4045
0.199363 0.575512 0.25089
182.8638
223.3632
327.6069
357.3725
430.9994
441.1029
0.199363 0.575512 -0.313612
212.3821
213.5651
351.1696
351.3934
446.695
447.3152
0.299045 0.517961 0.0
215.4995
256.7134
304.0701
338.724
366.21
441.8212
0.299045 0.517961 0.062722
200.9802
244.1503
305.5253
340.3214
365.607
432.7515
0.299045 0.517961 0.125445
170.5317
216.9034
312.9179
348.7831
371.1212
414.2521
0.299045 0.517961 0.188167
156.0479
196.8746
331.9027
364.9857
389.363
404.8673
0.299045 0.517961 0.25089
169.9352
192.4297
356.5412
375.3775
411.4372
413.9215
0.299045 0.517961 -0.313612
187.0651
187.3574
372.9183
373.143
421.498
421.5684
P	=	1499.96	V	=	104.51056	E	=	-655.32403192
0.0 0.0 0.0
-0.0
0.0
0.0
328.2402
328.2402
564.9221
0.0 0.0 0.062684
-80.6854
-80.6854
-22.2811
310.7121
310.7121
543.3644
0.0 0.0 0.125368
-118.1605
-118.1605
114.2906
273.8605
273.8605
497.3103
0.0 0.0 0.188051
-54.1386
-54.1386
247.2011
250.7406
250.7406
464.4919
0.0 0.0 0.250735
161.3492
161.3492
247.2331
247.2331
362.7742
454.1935
0.0 0.0 -0.313419
228.2409
228.2409
228.2437
228.2437
431.5287
431.572
0.0 0.115159 0.0
-63.6154
76.264
150.2382
336.6661
343.7034
541.4397
0.0 0.115159 0.062684
-94.296
25.3393
151.8
321.3566
329.8573
523.1764
0.0 0.115159 0.125368
-101.532
-66.9227
181.4532
289.2394
299.1301
484.6813
0.0 0.115159 0.188051
73.5213
84.2519
264.7583
268.1447
274.2639
457.2996
0.0 0.115159 0.250735
181.656
185.7799
261.8558
262.535
359.8207
446.3564
0.0 0.115159 -0.313419
238.7824
239.2768
243.4529
243.5278
422.366
422.7102
0.0 0.230318 0.0
-51.3356
147.9358
282.6504
357.1217
385.7568
487.2151
0.0 0.230318 0.062684
-84.3699
137.1186
289.6954
345.3471
374.4633
478.8493
0.0 0.230318 0.125368
-94.8497
131.7077
310.3179
320.5637
344.9485
463.8811
0.0 0.230318 0.188051
78.1264
172.3997
302.8788
309.4404
348.4628
455.4818
0.0 0.230318 0.250735
183.5063
233.4756
280.6261
295.1061
394.8164
449.7682
0.0 0.230318 -0.313419
243.6378
245.8916
277.2672
277.3266
431.5352
432.8978
0.0 0.345476 0.0
157.5786
206.0685
380.9113
383.8426
437.2653
439.9254
0.0 0.345476 0.062684
136.4313
198.0698
369.7278
386.9086
407.0958
458.9927
0.0 0.345476 0.125368
103.8883
193.648
346.5284
360.4025
407.5483
470.7472
0.0 0.345476 0.188051
132.3139
222.92
324.0852
330.7377
431.5151
480.3366
0.0 0.345476 0.250735
199.4424
272.5962
293.8487
324.8797
459.7443
486.0514
0.0 0.345476 -0.313419
255.6887
257.0564
310.1407
310.1971
479.9174
480.6238
0.0 0.460635 0.0
242.0723
269.9715
400.5053
408.9482
447.7615
483.6094
0.0 0.460635 0.062684
230.3121
250.0826
387.3011
392.4225
449.1901
485.7228
0.0 0.460635 0.125368
212.5125
217.3674
359.9692
360.6179
456.7261
493.4798
0.0 0.460635 0.188051
209.5682
241.9268
335.1871
344.9309
478.2444
509.3699
0.0 0.460635 0.250735
252.1053
292.9928
320.3692
343.1561
507.6673
525.6915
0.0 0.460635 -0.313419
295.9128
296.8774
331.4155
331.4414
526.738
527.4864
0.0 -0.575794 0.0
253.7955
320.3228
394.9422
408.3412
470.1158
499.7224
0.0 -0.575794 0.062684
239.6738
297.6055
382.8804
393.8681
468.2086
498.719
0.0 -0.575794 0.125368
221.8215
253.2039
357.4009
364.8561
470.9058
503.6507
0.0 -0.575794 0.188051
241.4517
244.9606
341.0993
348.865
491.7324
521.6031
0.0 -0.575794 0.250735
277.8711
298.5153
335.92
349.0865
524.3218
542.0173
0.0 -0.575794 -0.313419
317.4437
319.4085
338.4642
338.5491
544.8539
546.2962
0.09973 0.172738 0.0
-74.3418
131.9272
246.1613
353.991
370.6248
502.3117
0.09973 0.172738 0.062684
-100.0021
120.3222
251.782
342.5526
359.1578
490.4657
0.09973 0.172738 0.125368
-106.6232
115.0932
272.3263
318.8707
330.4149
467.2538
0.09973 0.172738 0.188051
70.6432
159.8316
295.895
299.2113
322.1594
452.4269
0.09973 0.172738 0.250735
182.6843
223.2574
274.888
289.3819
378.2111
444.6041
0.09973 0.172738 -0.313419
240.2396
241.1176
271.2822
271.8106
423.8177
423.9225
0.09973 0.287897 0.0
89.4788
194.3095
329.897
391.2842
415.0637
448.9164
0.09973 0.287897 0.062684
54.9504
191.4521
332.9829
383.394
396.8928
454.1403
0.09973 0.287897 0.125368
-44.4369
196.2761
335.0282
352.392
384.9134
459.2806
0.09973 0.287897 0.188051
85.1431
225.6718
312.8204
331.8325
402.2289
464.005
0.09973 0.287897 0.250735
174.1931
261.1585
288.3732
324.3706
432.0893
465.7413
0.09973 0.287897 -0.313419
234.593
236.1684
308.2567
308.9933
455.9207
456.5729
0.09973 0.403056 0.0
210.4933
241.2984
376.5695
408.1093
433.5757
464.6755
0.09973 0.403056 0.062684
191.1676
237.7664
372.1386
389.0528
435.1841
467.8065
0.09973 0.403056 0.125368
156.7662
239.0223
345.4981
369.3665
439.6226
476.2771
0.09973 0.403056 0.188051
161.1915
262.1003
316.2845
359.0189
458.2105
489.2984
0.09973 0.403056 0.250735
209.1414
280.7837
314.0629
353.1126
483.9202
501.294
0.09973 0.403056 -0.313419
255.7433
256.1896
339.8675
340.2519
501.0416
501.1566
0.09973 0.518215 0.0
264.7027
291.1135
382.3971
401.9361
457.1008
495.257
0.09973 0.518215 0.062684
251.3555
277.0438
366.4566
397.4779
456.3155
492.547
0.09973 0.518215 0.125368
219.175
263.7971
335.3409
384.3137
460.9488
494.2425
0.09973 0.518215 0.188051
211.5592
282.5642
314.1593
374.2975
481.5137
509.1082
0.09973 0.518215 0.250735
246.0777
300.9391
327.3107
371.2749
511.1792
527.0438
0.09973 0.518215 -0.313419
283.0965
284.3959
359.0581
359.4415
529.5905
530.7056
0.199461 0.345476 0.0
169.874
250.3996
350.398
402.7045
437.3801
450.346
0.199461 0.345476 0.062684
151.9722
252.2401
353.7668
381.3671
445.5725
446.4725
0.199461 0.345476 0.125368
120.9878
260.9906
343.8866
360.788
439.3723
458.684
0.199461 0.345476 0.188051
131.0388
273.2905
318.0183
364.068
447.67
472.1606
0.199461 0.345476 0.250735
181.7196
261.7392
328.5559
360.1856
468.493
483.5631
0.199461 0.345476 -0.313419
229.7389
230.7758
348.1394
348.8016
483.6598
483.6881
0.199461 0.460635 0.0
238.0411
292.5959
360.0482
377.0133
442.3886
486.2305
0.199461 0.460635 0.062684
222.3468
293.6138
348.1952
381.4495
443.7363
480.5212
0.199461 0.460635 0.125368
192.6437
293.5427
329.0398
389.5477
450.2431
473.3921
0.199461 0.460635 0.188051
184.4863
278.6074
337.6503
393.7678
465.3528
481.2261
0.199461 0.460635 0.250735
208.7673
261.2124
361.7548
391.4043
487.1072
496.0802
0.199461 0.460635 -0.313419
239.4021
239.939
381.562
381.7114
500.1247
500.5108
0.199461 0.575794 0.0
274.971
306.6273
333.6167
400.3609
432.8553
497.265
0.199461 0.575794 0.062684
256.3248
311.7908
321.9111
403.2148
433.9082
491.126
0.199461 0.575794 0.125368
223.139
296.5885
322.7619
408.1257
442.3047
482.729
0.199461 0.575794 0.188051
207.9056
275.223
344.5489
408.8951
463.3606
488.3473
0.199461 0.575794 0.250735
222.7477
262.3495
372.9759
405.7375
489.315
501.7377
0.199461 0.575794 -0.313419
245.9671
247.0942
395.1807
395.4634
504.2785
505.0819
0.299191 0.518215 0.0
260.1813
306.1505
345.8866
384.5522
414.8982
494.9793
0.299191 0.518215 0.062684
249.3791
295.145
351.3789
390.5462
418.3425
488.1467
0.299191 0.518215 0.125368
226.6424
271.7154
364.2745
406.287
430.9677
473.6012
0.299191 0.518215 0.188051
211.6554
249.8834
383.8233
423.7791
451.2957
465.0759
0.299191 0.518215 0.250735
213.9353
235.9093
405.5801
428.718
470.4511
472.0634
0.299191 0.518215 -0.313419
224.71
225.0807
421.6218
421.7977
478.3065
478.3508
P	=	1999.78	V	=	99.17659	E	=	-655.26092456
0.0 0.0 0.0
-0.0
-0.0
0.0
358.2849
358.2849
616.3168
0.0 0.0 0.062655
-74.8922
-74.8922
42.3444
340.403
340.403
595.4985
0.0 0.0 0.12531
-104.6965
-104.6965
146.9898
301.7236
301.7236
550.4213
0.0 0.0 0.187965
46.181
46.181
273.9242
273.9242
279.888
515.6508
0.0 0.0 0.25062
180.0501
180.0501
265.0141
265.0141
397.7794
499.6627
0.0 0.0 -0.313275
243.8807
243.8807
243.8807
243.8807
470.8921
470.8921
0.0 0.115193 0.0
-63.1465
79.4833
164.7147
363.988
373.4459
591.7923
0.0 0.115193 0.062655
-85.4796
45.6109
172.3375
348.7608
359.6232
574.6458
0.0 0.115193 0.12531
-75.592
-30.6752
212.5642
315.8734
328.1753
537.6343
0.0 0.115193 0.187965
110.56
111.902
291.2314
299.1702
300.1078
508.113
0.0 0.115193 0.25062
202.4102
202.6851
280.5591
282.605
394.9602
491.0307
0.0 0.115193 -0.313275
257.155
257.155
258.8047
258.8047
461.0122
461.0122
0.0 0.230387 0.0
-33.5509
155.7242
309.6972
380.7677
417.4495
534.7052
0.0 0.230387 0.062655
-60.1536
148.8919
319.6048
369.9301
407.023
528.1392
0.0 0.230387 0.12531
-42.3161
150.9148
345.434
346.4159
379.4397
515.1747
0.0 0.230387 0.187965
124.2322
191.5443
327.1693
342.2445
386.2947
504.5921
0.0 0.230387 0.25062
209.0806
249.6412
307.427
314.9331
431.6791
493.3508
0.0 0.230387 -0.313275
267.2274
267.2274
293.5196
293.5196
470.5549
470.5549
0.0 0.34558 0.0
175.783
219.467
406.0686
420.1472
478.2356
480.6801
0.0 0.34558 0.062655
162.714
214.3747
396.0834
424.6178
447.9578
503.7589
0.0 0.34558 0.12531
147.1142
215.1677
374.7851
400.8028
450.2882
519.6535
0.0 0.34558 0.187965
170.8398
244.9409
358.1103
361.9864
475.3185
529.4902
0.0 0.34558 0.25062
225.6604
292.3177
323.9438
348.2222
502.3461
531.8912
0.0 0.34558 -0.313275
280.2433
280.2433
330.0308
330.0308
523.0106
523.0106
0.0 0.460774 0.0
260.3522
292.2824
430.9904
448.3629
490.2607
528.98
0.0 0.460774 0.062655
251.5794
275.9425
418.5074
432.457
493.2505
533.5153
0.0 0.460774 0.12531
244.5233
245.5466
392.6692
400.5685
503.7042
545.2608
0.0 0.460774 0.187965
242.4334
270.144
372.7293
375.3518
526.5046
561.8581
0.0 0.460774 0.25062
278.0818
318.3737
350.9309
369.8384
555.4633
575.6219
0.0 0.460774 -0.313275
321.2396
321.2396
355.7858
355.7858
574.9512
574.9512
0.0 -0.575967 0.0
274.0828
344.3084
432.9151
441.6584
515.0435
547.8599
0.0 -0.575967 0.062655
263.1676
324.3655
421.6508
427.5717
514.3387
548.8811
0.0 -0.575967 0.12531
251.9318
285.3417
396.9619
398.6654
519.5761
557.1875
0.0 -0.575967 0.187965
273.6581
276.4652
377.7815
380.489
541.5875
575.7679
0.0 -0.575967 0.25062
304.7421
326.6819
366.1522
377.1141
573.8284
594.0227
0.0 -0.575967 -0.313275
344.0115
344.0115
364.9
364.9
595.4753
595.4753
0.09976 0.17279 0.0
-68.789
139.4769
268.8508
379.3152
400.6885
550.6949
0.09976 0.17279 0.062655
-85.4146
132.5898
277.7413
368.7675
389.8257
540.5458
0.09976 0.17279 0.12531
-71.2667
136.1476
303.9599
346.7847
362.0406
519.3966
0.09976 0.17279 0.187965
115.2175
180.2237
320.6092
329.4133
358.357
502.1033
0.09976 0.17279 0.25062
205.2995
239.952
300.0528
309.4847
414.521
487.8906
0.09976 0.17279 -0.313275
260.4864
260.4864
289.0051
289.0051
461.7086
461.7086
0.09976 0.287984 0.0
108.1081
207.694
356.2659
421.4205
449.0253
493.6926
0.09976 0.287984 0.062655
92.9974
207.8245
360.7463
415.8541
432.9079
500.42
0.09976 0.287984 0.12531
83.0637
217.5926
363.8678
389.9573
423.9973
508.3687
0.09976 0.287984 0.187965
130.6192
247.4085
347.0237
361.5318
443.3507
512.2497
0.09976 0.287984 0.25062
198.8322
281.8647
315.7762
348.5775
471.9636
509.6402
0.09976 0.287984 -0.313275
256.6373
256.6373
329.5729
329.5729
496.3627
496.3627
0.09976 0.403177 0.0
230.9421
259.6009
405.718
448.4155
471.1522
506.0999
0.09976 0.403177 0.062655
216.4506
259.1403
402.3116
429.0012
476.0341
512.1536
0.09976 0.403177 0.12531
192.1676
265.388
381.312
406.2699
484.3515
525.412
0.09976 0.403177 0.187965
195.4629
289.0995
351.6777
392.7662
504.2638
539.3904
0.09976 0.403177 0.25062
233.3352
306.5575
341.9472
381.938
528.9902
548.5499
0.09976 0.403177 -0.313275
277.7803
277.7803
365.6568
365.6568
545.9578
545.9578
0.09976 0.518371 0.0
285.984
314.6019
419.3625
434.9323
499.6782
541.0703
0.09976 0.518371 0.062655
275.366
304.0425
402.8011
433.0398
500.4993
540.5326
0.09976 0.518371 0.12531
250.3352
295.6795
371.7878
421.8871
508.2237
546.179
0.09976 0.518371 0.187965
243.4921
314.6827
347.9839
410.3453
530.1467
561.9505
0.09976 0.518371 0.25062
271.2159
328.003
357.3441
403.0054
559.3315
577.4769
0.09976 0.518371 -0.313275
306.6353
306.6353
388.1342
388.1342
578.4348
578.4348
0.199521 0.34558 0.0
189.7704
270.9643
377.121
443.1392
473.2668
488.6458
0.199521 0.34558 0.062655
178.706
275.0582
383.0375
420.4627
485.5425
487.8747
0.199521 0.34558 0.12531
161.1015
287.3387
383.8159
394.1529
482.7197
505.9153
0.199521 0.34558 0.187965
168.099
300.7703
354.5335
397.6633
492.446
520.3766
0.199521 0.34558 0.25062
205.3289
287.2851
357.0572
390.2661
511.807
528.6847
0.199521 0.34558 -0.313275
250.5131
250.5131
375.4738
375.4738
526.3438
526.3438
0.199521 0.460774 0.0
260.7066
317.3093
395.6147
408.5774
480.6212
528.0393
0.199521 0.460774 0.062655
249.0587
320.8191
384.4701
416.1896
484.8444
524.0686
0.199521 0.460774 0.12531
226.9301
325.2777
366.6478
428.1421
495.9361
520.8901
0.199521 0.460774 0.187965
217.9693
311.3179
372.6102
432.1837
512.2038
530.5471
0.199521 0.460774 0.25062
232.9201
287.4041
393.9202
426.0887
532.6468
543.0253
0.199521 0.460774 -0.313275
260.3966
260.3966
413.2504
413.2504
545.2264
545.2264
0.199521 0.575967 0.0
299.1796
332.4238
366.7197
434.4395
472.1696
540.194
0.199521 0.575967 0.062655
283.471
341.0898
356.1343
440.3317
475.229
535.8807
0.199521 0.575967 0.12531
256.5114
332.5229
357.1177
449.148
487.5671
531.3979
0.199521 0.575967 0.187965
241.0897
308.5482
379.979
449.2223
510.3252
538.6883
0.199521 0.575967 0.25062
247.9241
288.3019
406.5492
442.1265
535.3401
549.8581
0.199521 0.575967 -0.313275
267.749
267.749
428.5807
428.5807
550.5275
550.5275
0.299281 0.518371 0.0
285.5177
336.5486
376.012
417.85
451.0556
536.0602
0.299281 0.518371 0.062655
278.3119
327.4465
384.2379
427.1484
457.5469
530.6977
0.299281 0.518371 0.12531
261.5117
307.4258
400.7066
448.6721
475.9389
518.7541
0.299281 0.518371 0.187965
245.5351
283.8104
420.7868
467.2489
498.3869
511.1189
0.299281 0.518371 0.25062
239.2767
261.883
441.1571
468.1411
515.502
516.7713
0.299281 0.518371 -0.313275
245.5984
245.5984
457.6092
457.6092
521.7796
521.7796
P	=	2500.0	V	=	94.87624	E	=	-655.19538411
0.0 0.0 0.0
-0.0
-0.0
0.0
378.8388
378.8388
660.6839
0.0 0.0 0.062632
-75.1208
-75.1208
56.6836
360.4154
360.4154
639.8091
0.0 0.0 0.125263
-103.0827
-103.0827
166.0033
320.2385
320.2385
594.1441
0.0 0.0 0.187895
62.6198
62.6199
290.2518
290.2518
303.1976
557.1258
0.0 0.0 0.250527
191.0429
191.0429
279.1356
279.1356
425.6302
536.9913
0.0 0.0 -0.313159
256.2747
256.2747
256.2747
256.2747
503.438
503.438
0.0 0.115214 0.0
-71.4063
75.5439
174.3715
382.6893
394.122
634.4518
0.0 0.115214 0.062632
-86.5341
40.8074
184.8532
367.1934
380.0632
617.6129
0.0 0.115214 0.125263
-65.0842
-24.9684
231.9493
333.3434
347.7731
580.5736
0.0 0.115214 0.187895
119.4807
123.3015
306.7268
317.8191
323.7022
548.7593
0.0 0.115214 0.250527
211.5778
213.7821
293.488
297.6994
422.5565
527.0695
0.0 0.115214 -0.313159
269.4821
269.4821
269.8503
269.8503
492.2565
492.2565
0.0 0.230428 0.0
-53.2651
154.0066
329.1113
397.1981
440.9729
573.2692
0.0 0.230428 0.062632
-60.1952
148.8286
340.6455
386.6175
430.8243
567.7179
0.0 0.230428 0.125263
35.906
154.8241
363.1967
369.9747
403.8076
555.656
0.0 0.230428 0.187895
142.1945
198.0956
342.5449
364.7661
414.1333
543.036
0.0 0.230428 0.250527
221.8985
257.4194
325.7579
327.3865
460.5635
527.4511
0.0 0.230428 -0.313159
281.079
281.079
303.0994
303.0994
500.9477
500.9477
0.0 0.345641 0.0
182.1679
225.4685
424.6355
448.6388
509.0815
515.1751
0.0 0.345641 0.062632
173.8232
221.4975
414.9034
453.6494
479.6969
539.4301
0.0 0.345641 0.125263
166.7002
224.6803
393.7737
430.5069
482.9696
557.934
0.0 0.345641 0.187895
190.2799
255.9677
376.0247
389.1432
509.324
567.9312
0.0 0.345641 0.250527
240.9052
304.1028
345.4468
363.7684
536.5828
568.3526
0.0 0.345641 -0.313159
296.3001
296.3001
343.2209
343.2209
557.6824
557.6824
0.0 0.460855 0.0
274.4352
308.6309
454.8332
480.5629
526.069
567.2501
0.0 0.460855 0.062632
266.2964
293.7357
442.032
464.4249
529.6423
572.8623
0.0 0.460855 0.125263
260.795
265.9971
415.3107
431.5753
541.4203
586.5898
0.0 0.460855 0.187895
263.1136
287.6588
396.7221
401.0388
565.4414
604.0388
0.0 0.460855 0.250527
297.2517
336.6376
374.8765
389.9179
595.2
617.2118
0.0 0.460855 -0.313159
341.3706
341.3706
374.8464
374.8464
615.5095
615.5095
0.0 -0.576069 0.0
291.5693
364.1221
464.6129
468.2223
553.8499
589.0653
0.0 -0.576069 0.062632
281.1683
344.8563
453.0798
453.4913
553.285
590.8582
0.0 -0.576069 0.125263
271.3571
307.0247
423.0652
427.4219
559.2205
600.6216
0.0 -0.576069 0.187895
295.4098
297.1679
403.4185
406.0362
582.3534
619.9947
0.0 -0.576069 0.250527
325.9048
348.1211
391.1761
399.2844
615.7922
638.0244
0.0 -0.576069 -0.313159
366.2306
366.2306
386.7718
386.7718
638.5947
638.5947
0.099778 0.172821 0.0
-81.9294
137.7575
284.2399
397.1914
422.2388
590.4025
0.099778 0.172821 0.062632
-87.9765
132.665
295.0139
386.9303
411.551
581.1185
0.099778 0.172821 0.125263
-52.5179
140.5542
324.8394
365.8545
383.8899
560.7058
0.099778 0.172821 0.187895
131.1271
187.3094
336.5214
349.8945
384.6083
541.1651
0.099778 0.172821 0.250527
216.6496
248.1691
316.8649
322.5585
442.4797
522.1929
0.099778 0.172821 -0.313159
272.1969
272.1969
300.1489
300.1489
491.7503
491.7503
0.099778 0.288034 0.0
106.3614
212.2402
374.3507
444.6072
475.1566
529.0229
0.099778 0.288034 0.062632
99.9293
213.9029
379.4383
440.2887
460.0609
536.8773
0.099778 0.288034 0.125263
105.0322
226.6031
382.887
416.7315
453.1418
546.6438
0.099778 0.288034 0.187895
148.6333
257.8698
368.8295
382.8602
474.466
549.7224
0.099778 0.288034 0.250527
210.5441
293.1692
334.2532
364.6972
503.2192
543.9584
0.099778 0.288034 -0.313159
268.6191
268.6191
343.2108
343.2108
528.1176
528.1176
0.099778 0.403248 0.0
242.0043
271.3017
427.3591
480.0127
501.433
539.9532
0.099778 0.403248 0.062632
230.0277
272.234
424.0898
459.7176
508.532
547.7038
0.099778 0.403248 0.125263
210.4117
280.8179
405.6239
434.1837
519.3028
563.918
0.099778 0.403248 0.187895
213.5899
305.4741
376.2113
417.1171
540.5696
578.7934
0.099778 0.403248 0.250527
247.8007
323.6109
361.8653
403.0765
565.4363
586.6701
0.099778 0.403248 -0.313159
292.3172
292.3172
384.6114
384.6114
582.7134
582.7134
0.099778 0.518462 0.0
302.4612
332.0962
448.9693
460.4491
535.2211
579.6083
0.099778 0.518462 0.062632
292.2353
323.2738
430.5479
460.4859
536.732
580.0718
0.099778 0.518462 0.125263
269.2811
316.8887
398.1706
449.871
546.071
587.7252
0.099778 0.518462 0.187895
262.8991
336.4413
372.2505
437.2205
569.3682
604.4298
0.099778 0.518462 0.250527
288.7912
348.2549
380.0377
427.8555
599.324
619.3484
0.099778 0.518462 -0.313159
324.2955
324.2955
411.3947
411.3947
619.2282
619.2282
0.199556 0.345641 0.0
196.6753
283.46
395.7867
473.8769
501.0323
519.1013
0.199556 0.345641 0.062632
189.8212
288.5637
403.3582
449.3438
516.8693
520.0959
0.199556 0.345641 0.125263
179.195
302.5467
412.2894
417.1804
516.0473
542.4422
0.199556 0.345641 0.187895
185.3054
316.9131
380.1044
420.9588
527.064
557.8246
0.199556 0.345641 0.250527
216.6678
302.7111
377.019
411.5735
545.987
564.2638
0.199556 0.345641 -0.313159
261.4681
261.4681
394.7899
394.7899
560.3436
560.3436
0.199556 0.460855 0.0
273.494
334.2283
421.7349
431.5504
510.3035
561.8085
0.199556 0.460855 0.062632
264.2128
339.0544
410.475
441.5525
516.6018
558.7697
0.199556 0.460855 0.125263
245.892
345.8999
393.1014
456.0194
531.1521
558.0047
0.199556 0.460855 0.187895
236.0142
332.473
397.2064
460.1031
548.8586
569.1149
0.199556 0.460855 0.250527
245.9689
303.7786
417.5211
452.0234
568.9997
580.485
0.199556 0.460855 -0.313159
272.2395
272.2395
437.2396
437.2396
581.4591
581.4591
0.199556 0.576069 0.0
314.612
350.4031
390.4801
459.7426
502.7026
575.0562
0.199556 0.576069 0.062632
300.4401
361.2288
380.2986
467.7124
507.1831
571.7155
0.199556 0.576069 0.125263
276.3282
356.9736
380.6053
479.1777
522.5592
569.5752
0.199556 0.576069 0.187895
260.0536
330.5352
404.9889
479.0119
547.2241
578.2059
0.199556 0.576069 0.250527
262.2128
304.8691
431.6694
469.79
572.364
588.3799
0.199556 0.576069 -0.313159
280.3451
280.3451
454.2894
454.2894
587.7521
587.7521
0.299334 0.518462 0.0
299.8928
356.264
396.6178
441.7578
477.6872
568.4252
0.299334 0.518462 0.062632
295.2569
348.4808
406.8317
453.6141
486.6138
563.8117
0.299334 0.518462 0.125263
282.0893
330.3631
426.202
479.7932
509.7983
553.2237
0.299334 0.518462 0.187895
264.5983
304.6348
447.5561
499.4966
534.4371
546.3887
0.299334 0.518462 0.250527
251.8763
276.0633
467.9347
497.8568
550.5458
551.5727
0.299334 0.518462 -0.313159
255.034
255.034
485.0516
485.0516
555.8411
555.8411
P	=	3000.06	V	=	91.28617	E	=	-655.12842946
0.0 0.0 0.0
-0.0
-0.0
0.0
361.8724
361.8724
662.134
0.0 0.0 0.06261
-109.713
-109.713
-47.0232
338.3216
338.3216
643.0511
0.0 0.0 0.12522
-166.0356
-166.0356
115.5283
290.5071
290.5071
603.5131
0.0 0.0 0.18783
-115.3677
-115.3677
268.2307
268.2307
281.0364
575.7051
0.0 0.0 0.25044
174.1846
174.1846
277.1762
277.1762
427.5609
560.7842
0.0 0.0 -0.313051
261.5469
261.5469
261.5469
261.5469
521.8732
521.8732
0.0 0.115227 0.0
107.6687
188.6575
265.4295
385.2692
435.4791
676.0249
0.0 0.115227 0.06261
70.9014
172.5912
278.7674
369.4135
425.2949
665.0341
0.0 0.115227 0.12522
-34.1896
167.8176
320.9632
336.9411
402.8277
641.0051
0.0 0.115227 0.18783
120.8041
216.2307
317.0531
382.7775
398.1452
618.7671
0.0 0.115227 0.25044
226.3055
285.0887
312.2407
366.4713
487.7583
597.128
0.0 0.115227 -0.313051
290.6399
290.6399
338.1158
338.1158
557.7622
557.7622
0.0 0.230453 0.0
195.4206
320.3174
431.7266
464.2652
556.8138
685.7569
0.0 0.230453 0.06261
201.2634
329.5795
425.978
484.3923
556.7398
689.8755
0.0 0.230453 0.12522
222.4887
352.847
411.5976
525.5427
549.5499
694.8813
0.0 0.230453 0.18783
260.3761
377.5829
393.6093
522.3239
565.1679
687.4516
0.0 0.230453 0.25044
305.0619
372.6615
400.8788
478.8362
597.1317
663.1403
0.0 0.230453 -0.313051
344.1708
344.1708
433.4888
433.4888
629.7944
629.7944
0.0 0.34568 0.0
253.208
368.857
465.9709
562.2994
626.3714
642.5434
0.0 0.34568 0.06261
257.2461
374.6343
460.0335
573.6065
608.0198
666.2334
0.0 0.34568 0.12522
273.2528
387.2261
445.2886
574.0247
609.7327
691.5238
0.0 0.34568 0.18783
304.5167
399.9608
427.1945
540.0478
635.1453
700.9939
0.0 0.34568 0.25044
343.9255
406.7944
416.588
493.4914
656.0957
692.7354
0.0 0.34568 -0.313051
379.8751
379.8751
447.7299
447.7299
675.0968
675.0968
0.0 0.460906 0.0
283.0146
364.0521
477.7878
545.3165
578.6942
635.7246
0.0 0.460906 0.06261
269.1952
348.2436
463.9224
524.7609
578.7269
633.7865
0.0 0.460906 0.12522
253.2333
319.3385
435.5449
482.7958
584.1473
636.1507
0.0 0.460906 0.18783
280.6519
318.6061
416.8953
446.9177
610.3779
651.795
0.0 0.460906 0.25044
341.1587
356.0884
409.883
424.7002
649.1018
671.5549
0.0 0.460906 -0.313051
390.0663
390.0663
398.29
398.29
674.0961
674.0961
0.0 -0.576133 0.0
291.8527
366.5209
476.0102
478.6949
572.3952
628.741
0.0 -0.576133 0.06261
267.4112
335.0771
453.0965
460.0271
561.1392
615.5765
0.0 -0.576133 0.12522
229.5538
270.6601
403.1156
423.076
551.7004
599.8584
0.0 -0.576133 0.18783
255.3349
255.8253
371.398
404.1543
580.0758
615.6985
0.0 -0.576133 0.25044
312.2723
332.0917
372.4102
405.7066
632.986
651.3329
0.0 -0.576133 -0.313051
362.6261
362.6261
389.9539
389.9539
664.2071
664.2071
0.099789 0.17284 0.0
210.8466
294.6422
387.6475
451.4028
514.732
687.585
0.099789 0.17284 0.06261
214.4641
296.3606
403.2195
453.5456
513.3606
687.8454
0.099789 0.17284 0.12522
231.0135
309.0575
412.8933
478.9755
504.7792
685.058
0.099789 0.17284 0.18783
265.5827
330.5417
404.5163
482.0578
522.5861
672.1955
0.099789 0.17284 0.25044
308.8883
351.3745
394.4665
446.1987
566.6531
645.796
0.099789 0.17284 -0.313051
344.5851
344.5851
408.97
408.97
608.7658
608.7658
0.099789 0.288067 0.0
299.9318
369.5165
466.5884
536.5069
589.94
670.6856
0.099789 0.288067 0.06261
310.6239
378.0067
475.6702
548.0646
586.7099
684.0811
0.099789 0.288067 0.12522
334.0197
395.2381
482.3536
565.8452
588.8821
704.1183
0.099789 0.288067 0.18783
356.5921
406.143
472.6137
541.5205
615.4391
705.5116
0.099789 0.288067 0.25044
375.6004
409.1217
453.7281
497.7325
636.0103
685.0774
0.099789 0.288067 -0.313051
396.9369
396.9369
458.7704
458.7704
657.7045
657.7045
0.099789 0.403293 0.0
338.4639
388.2416
503.0241
566.2192
601.2722
628.4912
0.099789 0.403293 0.06261
338.4169
391.0321
498.9213
563.577
594.9184
644.9734
0.099789 0.403293 0.12522
340.889
398.9728
481.7858
553.1855
603.3654
667.8264
0.099789 0.403293 0.18783
350.6227
413.0702
457.1635
530.6631
628.0994
681.4352
0.099789 0.403293 0.25044
369.6872
424.2508
441.3999
500.4482
653.5345
682.5079
0.099789 0.403293 -0.313051
396.9211
396.9211
468.3506
468.3506
672.5562
672.5562
0.099789 0.51852 0.0
350.8515
392.8036
509.0463
511.5948
565.8575
629.9838
0.099789 0.51852 0.06261
339.3672
379.5282
478.9093
517.0331
563.7807
623.8248
0.099789 0.51852 0.12522
315.3612
361.2359
433.7441
507.021
569.1312
620.5117
0.099789 0.51852 0.18783
308.6826
375.6161
400.3255
494.1239
598.2766
636.2994
0.099789 0.51852 0.25044
335.9771
385.449
418.7293
482.4959
639.8034
659.5722
0.099789 0.51852 -0.313051
368.4086
368.4086
459.7159
459.7159
664.9551
664.9551
0.199578 0.34568 0.0
407.5731
416.8674
497.5934
577.7597
600.0323
628.0061
0.199578 0.34568 0.06261
406.7306
430.4913
520.2178
559.9928
603.8089
652.2368
0.199578 0.34568 0.12522
406.3976
457.1636
533.5151
558.1429
611.9536
683.0953
0.199578 0.34568 0.18783
402.1046
473.3676
504.2844
565.1387
627.8986
692.59
0.199578 0.34568 0.25044
399.0218
450.6378
497.3519
540.9802
645.6519
680.6513
0.199578 0.34568 -0.313051
414.6083
414.6083
513.0134
513.0134
662.0545
662.0545
0.199578 0.460906 0.0
433.9074
450.2457
531.3148
559.6922
562.9414
633.5449
0.199578 0.460906 0.06261
423.5014
466.0187
523.9974
549.1671
598.4758
635.9845
0.199578 0.460906 0.12522
410.5473
484.6968
494.8856
583.9861
617.2118
649.748
0.199578 0.460906 0.18783
397.5494
459.0762
507.5403
599.6529
624.3344
665.0026
0.199578 0.460906 0.25044
389.9752
426.7843
524.3089
576.1312
645.2336
666.7615
0.199578 0.460906 -0.313051
399.2648
399.2648
547.1323
547.1323
659.4084
659.4084
0.199578 0.576133 0.0
452.9605
455.1116
518.4542
549.1707
549.6355
640.4529
0.199578 0.576133 0.06261
438.182
468.7009
498.3368
561.446
574.3985
639.1656
0.199578 0.576133 0.12522
419.3415
470.4413
483.7547
591.1289
601.7212
640.2331
0.199578 0.576133 0.18783
400.331
441.5038
502.2015
600.0771
621.9605
652.5869
0.199578 0.576133 0.25044
388.6402
413.0667
524.2871
578.5784
645.6686
661.6789
0.199578 0.576133 -0.313051
392.3672
392.3672
550.5627
550.5627
659.6119
659.6119
0.299368 0.51852 0.0
484.5654
503.8872
529.8935
537.7701
556.8729
655.6898
0.299368 0.51852 0.06261
475.5678
510.8482
514.0739
568.5592
593.2692
658.8496
0.299368 0.51852 0.12522
465.0663
492.3882
535.0689
616.3428
639.2977
661.2832
0.299368 0.51852 0.18783
446.2553
467.4708
553.6752
644.5417
651.3661
662.5653
0.299368 0.51852 0.25044
419.7784
432.981
570.0586
623.2502
654.4838
662.6587
0.299368 0.51852 -0.313051
410.1246
410.1246
592.8141
592.8141
656.9264
656.9264
P	=	3200.12	V	=	89.99984	E	=	-655.10132533
0.0 0.0 0.0
0.0
0.0
0.0
362.29
362.29
678.0172
0.0 0.0 0.062602
-103.8856
-103.8856
-25.3319
341.6473
341.6473
660.047
0.0 0.0 0.125205
-155.8709
-155.8709
134.6487
300.2579
300.2579
622.3017
0.0 0.0 0.187807
-99.3573
-99.3573
280.4487
280.4487
293.5858
593.7785
0.0 0.0 0.250409
179.9349
179.9349
284.9563
284.9563
437.6779
575.1847
0.0 0.0 -0.313012
265.2405
265.2405
265.2405
265.2405
532.7822
532.7822
0.0 0.115232 0.0
113.6725
192.6568
271.463
389.0076
440.3344
691.9532
0.0 0.115232 0.062602
84.572
178.7319
286.3164
374.9971
431.4601
681.4399
0.0 0.115232 0.125205
48.0876
177.6159
330.8329
346.3338
411.5504
658.0364
0.0 0.115232 0.187807
135.6336
225.1628
327.9427
392.4604
408.6634
635.0771
0.0 0.115232 0.250409
233.4329
291.7133
320.8234
374.6357
498.3485
611.1877
0.0 0.115232 -0.313012
296.7896
296.7896
344.4931
344.4931
569.4883
569.4883
0.0 0.230464 0.0
205.2888
327.0513
440.9631
474.8426
567.6663
701.3997
0.0 0.230464 0.062602
210.9252
335.7428
435.3311
494.4687
567.0406
705.0815
0.0 0.230464 0.125205
231.6993
358.2957
421.2298
535.1165
558.9607
709.253
0.0 0.230464 0.187807
269.3422
383.7062
403.4861
531.2193
575.7094
701.3554
0.0 0.230464 0.250409
314.2226
382.5355
408.8622
488.1644
609.2616
676.975
0.0 0.230464 -0.313012
353.745
353.745
442.834
442.834
643.2165
643.2165
0.0 0.345697 0.0
263.2586
376.3527
478.1582
574.9675
640.171
656.956
0.0 0.345697 0.062602
267.0791
381.6121
471.8131
585.7008
620.8534
680.4882
0.0 0.345697 0.125205
282.7884
393.5141
456.1914
584.7161
621.632
705.3323
0.0 0.345697 0.187807
314.1801
406.7758
437.45
549.7795
647.5127
714.8388
0.0 0.345697 0.250409
353.9884
416.9482
425.057
503.2476
669.7723
707.1261
0.0 0.345697 -0.313012
390.1193
390.1193
457.422
457.422
689.6501
689.6501
0.0 0.460929 0.0
290.4803
370.6963
490.3895
557.8881
591.1728
650.0462
0.0 0.460929 0.062602
278.3005
355.9217
476.6964
537.409
591.924
648.7395
0.0 0.460929 0.125205
265.4861
329.1258
448.2206
495.4166
598.6222
652.068
0.0 0.460929 0.187807
293.0
328.8918
428.2137
458.4191
625.3612
667.731
0.0 0.460929 0.250409
351.1005
364.9242
419.2156
434.1519
663.7472
686.6721
0.0 0.460929 -0.313012
398.6497
398.6497
406.4871
406.4871
688.6019
688.6019
0.0 -0.576161 0.0
297.6594
372.0902
487.9724
491.1015
584.3058
642.9511
0.0 -0.576161 0.062602
275.902
342.848
465.9646
473.0399
574.5303
631.0084
0.0 -0.576161 0.125205
243.8775
283.6659
417.4228
436.7053
567.7785
617.3161
0.0 -0.576161 0.187807
269.6858
269.9927
384.5054
416.1062
596.6895
633.0308
0.0 -0.576161 0.250409
321.6677
341.7981
381.5992
414.4531
648.0635
666.7093
0.0 -0.576161 -0.313012
369.7404
369.7404
397.382
397.382
678.4394
678.4394
0.099794 0.172848 0.0
219.2454
300.8757
396.1507
460.5866
524.1138
703.3919
0.099794 0.172848 0.062602
223.0517
302.3642
411.4766
463.1727
522.5513
703.383
0.099794 0.172848 0.125205
239.7505
314.914
421.8426
488.7099
513.6667
700.0035
0.099794 0.172848 0.187807
274.0748
337.2723
413.9594
490.9361
532.9323
686.5714
0.099794 0.172848 0.250409
317.2296
359.6492
403.4777
455.297
578.3432
659.6291
0.099794 0.172848 -0.313012
353.2416
353.2416
417.9599
417.9599
621.7564
621.7564
0.099794 0.288081 0.0
309.849
377.2569
477.6482
549.5426
603.0655
685.733
0.099794 0.288081 0.062602
319.612
384.8738
486.1174
560.209
598.8717
698.5338
0.099794 0.288081 0.125205
341.6477
400.9544
492.011
575.8052
600.1233
717.595
0.099794 0.288081 0.187807
364.329
412.5901
482.1037
550.8091
627.0663
718.872
0.099794 0.288081 0.250409
384.7814
417.8361
463.8513
507.7851
649.295
699.1893
0.099794 0.288081 -0.313012
406.9936
406.9936
469.3752
469.3752
672.1237
672.1237
0.099794 0.403313 0.0
347.9701
396.0595
515.4469
579.7041
614.7499
642.9255
0.099794 0.403313 0.062602
347.636
398.7678
511.0344
576.2728
608.2393
659.3458
0.099794 0.403313 0.125205
349.6055
406.7664
493.0499
564.4934
616.6027
682.0882
0.099794 0.403313 0.187807
359.1919
421.4815
467.5907
541.3039
641.6752
695.8553
0.099794 0.403313 0.250409
378.6527
433.1748
451.8588
510.947
667.8993
697.3141
0.099794 0.403313 -0.313012
406.2554
406.2554
478.7881
478.7881
687.4517
687.4517
0.099794 0.518545 0.0
358.7228
399.8982
521.5955
523.7147
578.417
644.5783
0.099794 0.518545 0.062602
348.042
387.8752
491.1537
529.7853
577.223
639.1043
0.099794 0.518545 0.125205
325.5986
372.1079
445.9112
519.8885
584.1299
636.8603
0.099794 0.518545 0.187807
319.2384
387.1543
411.206
506.1003
613.7964
652.5935
0.099794 0.518545 0.250409
344.7534
394.271
428.9887
492.9209
654.7873
674.8957
0.099794 0.518545 -0.313012
376.1263
376.1263
469.3284
469.3284
679.6393
679.6393
0.199588 0.345697 0.0
416.1213
427.0459
510.1309
592.0656
614.4903
641.943
0.199588 0.345697 0.062602
414.5189
439.7245
531.7921
572.9883
617.6728
665.9774
0.199588 0.345697 0.125205
412.819
465.0044
544.5258
568.3844
625.0328
696.2357
0.199588 0.345697 0.187807
408.7003
481.0895
514.6493
575.4319
641.1203
705.989
0.199588 0.345697 0.250409
407.5362
459.9565
508.1385
552.2293
660.0397
695.1691
0.199588 0.345697 -0.313012
424.5213
424.5213
524.6455
524.6455
677.2
677.2
0.199588 0.460929 0.0
442.9146
460.9648
544.02
573.7179
575.5568
648.3233
0.199588 0.460929 0.062602
432.2102
476.0979
536.1811
561.7655
611.775
650.4758
0.199588 0.460929 0.125205
418.3807
495.7478
504.2071
596.0243
630.4367
663.6992
0.199588 0.460929 0.187807
405.2989
469.1666
517.2163
611.1621
638.5173
679.1101
0.199588 0.460929 0.250409
398.6098
436.3811
535.4375
588.2423
660.0007
681.6052
0.199588 0.460929 -0.313012
408.7108
408.7108
559.2301
559.2301
674.6151
674.6151
0.199588 0.576161 0.0
463.3958
464.2007
530.5127
562.3544
562.6676
655.4993
0.199588 0.576161 0.062602
447.0691
479.0571
509.7205
574.6378
587.2397
654.2148
0.199588 0.576161 0.125205
427.8042
480.5572
494.2432
604.5287
614.0536
655.3729
0.199588 0.576161 0.187807
408.8176
450.6805
513.0402
612.4828
636.0158
667.5564
0.199588 0.576161 0.250409
397.3851
421.9588
535.9171
591.0817
660.4618
676.7859
0.199588 0.576161 -0.313012
401.2973
401.2973
562.8682
562.8682
674.7666
674.7666
0.299382 0.518545 0.0
494.9909
516.1077
541.702
550.8806
570.4181
670.7496
0.299382 0.518545 0.062602
485.2321
522.0674
525.4895
581.0643
606.1695
673.4781
0.299382 0.518545 0.125205
473.1797
501.8361
545.6496
628.3778
651.7052
675.2172
0.299382 0.518545 0.187807
453.9616
476.1165
564.7257
656.9159
665.5441
675.5117
0.299382 0.518545 0.250409
428.5653
442.188
582.7475
637.2339
668.9003
676.9469
0.299382 0.518545 -0.313012
419.8556
419.8556
606.792
606.792
671.9714
671.9714
P	=	3399.98	V	=	88.78667	E	=	-655.07411315
0.0 0.0 0.0
-0.0
-0.0
-0.0
369.2301
369.2301
693.7234
0.0 0.0 0.062598
-97.9521
-97.9521
35.5369
350.1656
350.1656
676.9916
0.0 0.0 0.125196
-145.0595
-145.0595
154.1599
311.6193
311.6193
641.1917
0.0 0.0 0.187794
-78.8198
-78.8198
291.0877
291.0877
306.8587
611.8092
0.0 0.0 0.250392
186.3671
186.3671
291.0604
291.0604
447.6385
589.1653
0.0 0.0 -0.31299
268.5849
268.5849
268.5849
268.5849
543.1029
543.1029
0.0 0.115234 0.0
120.1804
196.6736
277.347
397.1656
448.7066
707.8257
0.0 0.115234 0.062598
96.4079
185.1413
293.5575
383.8514
440.2219
697.8174
0.0 0.115234 0.125196
74.6426
187.3384
340.5757
356.2725
420.8073
675.018
0.0 0.115234 0.187794
148.5033
233.8161
337.2749
401.0861
419.254
651.155
0.0 0.115234 0.250392
240.3956
298.0912
327.8742
381.5644
508.7666
624.8007
0.0 0.115234 -0.31299
302.3923
302.3923
350.229
350.229
580.7651
580.7651
0.0 0.230469 0.0
215.5196
333.8696
451.3328
484.8578
578.6416
717.1092
0.0 0.230469 0.062598
220.1976
341.8612
445.1665
503.9501
577.2645
720.2099
0.0 0.230469 0.125196
239.3741
363.4487
430.0256
544.0521
567.888
723.2518
0.0 0.230469 0.187794
276.7174
389.3552
411.7754
539.2852
585.7231
714.6967
0.0 0.230469 0.250392
322.4103
391.0848
416.2547
496.617
620.969
690.2675
0.0 0.230469 -0.31299
362.4925
362.4925
451.4377
451.4377
656.2039
656.2039
0.0 0.345703 0.0
273.1249
383.9479
490.028
586.4967
653.1481
671.2896
0.0 0.345703 0.062598
276.2945
388.5443
482.9839
596.7979
633.1657
694.2875
0.0 0.345703 0.125196
290.9809
399.5442
465.9454
594.7405
632.9122
718.5168
0.0 0.345703 0.187794
322.3815
413.2533
446.3774
558.8449
659.3305
727.9965
0.0 0.345703 0.250392
363.0014
426.0604
433.1318
512.3606
682.9032
720.8566
0.0 0.345703 -0.31299
399.5497
399.5497
466.5885
466.5885
703.6066
703.6066
0.0 0.460938 0.0
297.3871
377.1401
502.7957
570.1096
602.5272
663.7578
0.0 0.460938 0.062598
286.6908
363.5805
489.137
549.7586
604.1908
663.11
0.0 0.460938 0.125196
276.6726
339.1729
460.2888
507.8571
612.4839
667.452
0.0 0.460938 0.187794
304.3345
339.3886
438.8051
469.6996
639.9071
683.1149
0.0 0.460938 0.250392
360.3452
373.6112
427.9073
443.2176
677.8988
701.1684
0.0 0.460938 -0.31299
406.6598
406.6598
414.2633
414.2633
702.4978
702.4978
0.0 -0.576172 0.0
302.8233
377.054
499.5437
503.5841
595.3836
656.6758
0.0 -0.576172 0.062598
283.717
350.4445
478.679
486.048
587.1509
645.9836
0.0 -0.576172 0.125196
257.2356
297.1322
431.9165
450.1243
583.2411
634.39
0.0 -0.576172 0.187794
283.2473
284.5948
397.7587
427.6818
612.8084
649.9938
0.0 -0.576172 0.250392
331.0144
351.0517
390.5631
422.7666
662.6168
681.6003
0.0 -0.576172 -0.31299
376.4285
376.4285
404.3782
404.3782
692.1002
692.1002
0.099796 0.172852 0.0
227.8727
307.1825
405.4803
470.624
534.2307
719.2512
0.099796 0.172852 0.062598
231.2245
308.4125
420.416
472.8184
532.1264
718.8675
0.099796 0.172852 0.125196
247.1558
320.458
430.3351
497.8872
522.2061
714.6568
0.099796 0.172852 0.187794
281.3481
343.142
422.0906
498.9219
542.8602
700.4637
0.099796 0.172852 0.250392
324.9332
366.6902
411.633
463.4002
589.6988
672.9626
0.099796 0.172852 -0.31299
361.1402
361.1402
426.1677
426.1677
634.3532
634.3532
0.099796 0.288086 0.0
319.6134
385.1554
488.9874
561.6393
615.3127
700.7678
0.099796 0.288086 0.062598
328.0561
391.6506
496.4178
571.4082
610.2722
712.7253
0.099796 0.288086 0.125196
348.1109
406.1356
500.601
584.9164
610.6812
730.4909
0.099796 0.288086 0.187794
370.7991
418.277
490.239
559.1953
638.0869
731.5603
0.099796 0.288086 0.250392
392.9757
425.7819
473.036
516.9956
662.0444
712.7159
0.099796 0.288086 -0.31299
416.2211
416.2211
479.3205
479.3205
686.0325
686.0325
0.099796 0.40332 0.0
356.9402
403.9477
527.7815
591.8829
627.9302
656.7223
0.099796 0.40332 0.062598
356.1878
406.4165
522.678
588.0916
621.0063
673.0704
0.099796 0.40332 0.125196
357.4647
414.2044
503.3803
575.1053
629.1865
695.6654
0.099796 0.40332 0.187794
366.9181
429.4709
477.0897
550.978
654.7179
709.5865
0.099796 0.40332 0.250392
386.9027
441.658
461.6583
520.5939
681.7239
711.4624
0.099796 0.40332 -0.31299
414.9706
414.9706
488.6886
488.6886
701.7448
701.7448
0.099796 0.518555 0.0
365.9857
406.6493
534.2614
535.3643
590.215
658.8063
0.099796 0.518555 0.062598
356.1361
395.9663
503.1166
542.4186
589.9081
653.922
0.099796 0.518555 0.125196
335.5327
382.5908
457.8262
532.3393
598.4502
652.6574
0.099796 0.518555 0.187794
329.6007
398.2348
421.8987
517.309
628.7217
668.3474
0.099796 0.518555 0.250392
353.1842
402.7553
438.9366
502.616
669.1938
689.6606
0.099796 0.518555 -0.31299
383.4159
383.4159
478.4765
478.4765
693.7429
693.7429
0.199592 0.345703 0.0
424.8633
436.5324
522.6498
604.7762
628.7747
655.5882
0.199592 0.345703 0.062598
422.2406
448.1172
543.1095
584.7087
631.0872
679.1186
0.199592 0.345703 0.125196
418.7196
471.8634
554.4715
577.6927
637.3131
708.6439
0.199592 0.345703 0.187794
414.5515
488.1109
524.0567
584.1144
653.7144
718.7007
0.199592 0.345703 0.250392
415.3587
468.6959
518.3187
562.1736
673.8699
709.1113
0.199592 0.345703 -0.31299
433.8429
433.8429
535.5826
535.5826
691.8099
691.8099
0.199592 0.460938 0.0
451.8914
470.9633
556.6594
586.8579
587.6082
663.4521
0.199592 0.460938 0.062598
440.7475
485.3183
547.6173
573.9625
624.4744
664.8473
0.199592 0.460938 0.125196
425.7638
505.3899
513.1061
607.2629
642.907
676.8927
0.199592 0.460938 0.187794
412.4493
478.3941
526.2755
621.217
651.9928
692.5037
0.199592 0.460938 0.250392
406.7473
445.4393
546.1605
599.1002
674.1947
695.8635
0.199592 0.460938 -0.31299
417.7602
417.7602
570.6989
570.6989
689.2958
689.2958
0.199592 0.576172 0.0
472.9682
473.2535
542.0009
575.3018
575.6404
671.0019
0.199592 0.576172 0.062598
455.6983
488.5814
520.6235
587.3824
599.7437
669.2516
0.199592 0.576172 0.125196
435.8342
490.0877
503.7366
617.1889
625.6882
669.7212
0.199592 0.576172 0.187794
416.7251
459.3043
523.1532
623.5767
649.2569
681.7934
0.199592 0.576172 0.250392
405.6887
430.4791
547.132
602.4494
674.58
691.3365
0.199592 0.576172 -0.31299
409.9298
409.9298
574.5863
574.5863
689.3985
689.3985
0.299388 0.518555 0.0
505.1145
527.4959
552.9138
564.1854
583.7372
686.7859
0.299388 0.518555 0.062598
494.6007
532.5489
536.0731
593.2787
618.5085
688.4309
0.299388 0.518555 0.125196
480.6434
510.4091
555.1035
639.6375
663.3241
688.1869
0.299388 0.518555 0.187794
460.8933
483.9077
574.8802
668.2346
678.2362
687.7173
0.299388 0.518555 0.250392
436.8815
450.9203
594.8966
649.7799
682.736
690.7102
0.299388 0.518555 -0.31299
429.3416
429.3416
620.0401
620.0401
686.5925
686.5925
P	=	3599.95	V	=	87.63847	E	=	-655.04679764
0.0 0.0 0.0
-0.0
0.0
0.0
381.7729
381.7729
709.0275
0.0 0.0 0.062591
-92.5883
-92.5883
55.7948
362.8856
362.8856
693.4187
0.0 0.0 0.125182
-134.6497
-134.6497
171.088
323.7841
323.7841
659.3581
0.0 0.0 0.187773
-51.0192
-51.0192
300.0342
300.0342
319.4405
629.1619
0.0 0.0 0.250363
193.5019
193.5019
295.8621
295.8621
457.4246
602.7928
0.0 0.0 -0.312954
272.0796
272.0796
272.0796
272.0796
553.3092
553.3092
0.0 0.115239 0.0
126.3091
200.0603
283.1242
408.894
460.1995
723.1617
0.0 0.115239 0.062591
106.0251
190.7725
300.3138
395.2295
451.2222
713.5824
0.0 0.115239 0.125182
91.7354
195.854
349.5577
366.3879
430.4088
691.2528
0.0 0.115239 0.187773
159.631
241.8237
345.1867
408.7673
429.2769
666.49
0.0 0.115239 0.250363
247.4136
304.4881
333.7947
387.6533
518.8311
637.8597
0.0 0.115239 -0.312954
307.8611
307.8611
355.8218
355.8218
591.6801
591.6801
0.0 0.230478 0.0
225.0497
339.7791
462.189
494.5635
589.9107
732.0678
0.0 0.230478 0.062591
228.4899
347.1264
455.0979
513.0671
587.6095
734.5817
0.0 0.230478 0.125182
245.7167
367.8439
438.1322
552.5529
576.57
736.4678
0.0 0.230478 0.187773
282.9985
394.3571
418.9665
546.8831
595.2193
727.2376
0.0 0.230478 0.250363
330.0025
398.772
423.099
504.5248
632.1127
702.8041
0.0 0.230478 -0.312954
370.7392
370.7392
459.5149
459.5149
668.5335
668.5335
0.0 0.345717 0.0
282.3673
390.8661
501.219
597.5217
665.5741
684.8777
0.0 0.345717 0.062591
284.7206
394.7894
493.3853
607.4495
644.9388
707.3999
0.0 0.345717 0.125182
298.1403
404.8836
474.791
604.3425
643.779
731.046
0.0 0.345717 0.187773
329.6266
419.0552
454.4492
567.4777
670.7071
740.5133
0.0 0.345717 0.250363
371.3699
434.5574
440.5429
520.9537
695.4818
733.9378
0.0 0.345717 -0.312954
408.5012
408.5012
475.1343
475.1343
716.9277
716.9277
0.0 0.460955 0.0
304.1823
383.436
514.9823
581.9184
613.7091
677.0316
0.0 0.460955 0.062591
294.7362
370.9885
501.2022
561.6964
616.2285
677.01
0.0 0.460955 0.125182
287.074
348.729
471.7027
519.865
626.0254
682.3056
0.0 0.460955 0.187773
314.9684
349.3109
448.7227
480.5805
654.0666
697.9648
0.0 0.460955 0.250363
369.3021
381.8683
436.2114
451.954
691.6434
715.185
0.0 0.460955 -0.312954
414.5068
414.5068
421.7146
421.7146
715.9646
715.9646
0.0 -0.576194 0.0
308.2001
382.1226
510.9904
516.2971
606.6602
670.0616
0.0 -0.576194 0.062591
291.4927
358.0367
491.1772
499.049
599.8247
660.5418
0.0 -0.576194 0.125182
269.8885
310.1231
446.0019
463.0652
598.4462
650.9056
0.0 -0.576194 0.187773
296.1992
298.5291
410.6203
438.649
628.5257
666.4165
0.0 -0.576194 0.250363
340.1384
360.2565
399.3697
430.7977
676.8284
696.1011
0.0 -0.576194 -0.312954
383.0471
383.0471
411.401
411.401
705.4558
705.4558
0.0998 0.172858 0.0
235.8655
312.5947
415.2377
481.1592
545.2725
734.3965
0.0998 0.172858 0.062591
238.4781
313.6645
429.6226
482.3975
542.2947
733.6145
0.0998 0.172858 0.125182
253.3368
325.2365
438.3647
506.4809
530.6601
728.5191
0.0998 0.172858 0.187773
287.7283
348.2365
429.2076
506.3573
552.2185
713.5445
0.0998 0.172858 0.250363
332.2538
372.9913
419.1336
470.9132
600.5065
685.555
0.0998 0.172858 -0.312954
368.6085
368.6085
433.9401
433.9401
646.3311
646.3311
0.0998 0.288097 0.0
328.6538
392.1689
499.8982
573.1975
627.0843
714.9536
0.0998 0.288097 0.062591
335.7084
397.5926
506.1657
582.0921
621.2111
726.0958
0.0998 0.288097 0.125182
353.6784
410.5474
508.3956
593.6347
620.7094
742.6036
0.0998 0.288097 0.187773
376.4232
423.2519
497.5583
567.1318
648.5394
743.4896
0.0998 0.288097 0.250363
400.4679
433.082
481.5821
525.6649
674.1381
725.4948
0.0998 0.288097 -0.312954
424.8322
424.8322
488.6929
488.6929
699.2158
699.2158
0.0998 0.403336 0.0
365.3833
411.283
539.6342
603.6044
640.3577
669.9846
0.0998 0.403336 0.062591
364.1312
413.481
533.7528
599.444
633.1695
686.1764
0.0998 0.403336 0.125182
364.5868
421.0349
513.0539
585.1841
641.2735
708.6129
0.0998 0.403336 0.187773
373.8969
436.9218
486.0174
560.0583
667.2574
722.7063
0.0998 0.403336 0.250363
394.5021
449.6453
471.0674
529.7216
694.9959
725.0126
0.0998 0.403336 -0.312954
423.1459
423.1459
498.2097
498.2097
715.4524
715.4524
0.0998 0.518575 0.0
373.1201
413.1418
546.5444
547.0008
602.0957
672.664
0.0998 0.518575 0.062591
363.9743
403.7202
514.7974
554.7597
602.5161
668.2665
0.0998 0.518575 0.125182
344.9598
392.5808
469.3269
544.2369
612.421
667.8405
0.0998 0.518575 0.187773
339.3629
408.9166
432.1924
527.8724
643.1756
683.5062
0.0998 0.518575 0.250363
361.2087
410.9342
448.7715
511.9023
683.166
703.9504
0.0998 0.518575 -0.312954
390.4443
390.4443
487.4992
487.4992
707.4427
707.4427
0.1996 0.345717 0.0
432.8162
445.3167
534.6262
616.8232
642.5251
668.2816
0.1996 0.345717 0.062591
429.1826
455.8497
553.8578
595.791
643.9117
691.395
0.1996 0.345717 0.125182
423.8391
478.1544
563.906
586.3238
648.919
720.2884
0.1996 0.345717 0.187773
419.6145
494.6568
533.0619
592.0427
665.6133
730.721
0.1996 0.345717 0.250363
422.4183
476.8711
528.1962
571.4867
686.992
722.3771
0.1996 0.345717 -0.312954
442.4832
442.4832
546.1
546.1
705.7185
705.7185
0.1996 0.460955 0.0
460.1277
480.489
569.0519
598.6912
599.77
678.3288
0.1996 0.460955 0.062591
448.5991
494.0266
558.4943
585.7906
636.5407
678.7901
0.1996 0.460955 0.125182
432.4336
514.1837
521.8446
617.8972
654.7198
689.4092
0.1996 0.460955 0.187773
418.8876
487.0537
535.0609
630.5378
664.7557
705.2568
0.1996 0.460955 0.250363
414.278
454.0232
556.6576
609.3182
687.7893
709.5539
0.1996 0.460955 -0.312954
426.3158
426.3158
581.8098
581.8098
703.4281
703.4281
0.1996 0.576194 0.0
480.9574
482.8382
552.5709
588.3836
588.5381
686.357
0.1996 0.576194 0.062591
463.7474
497.671
530.9002
599.99
611.831
683.9127
0.1996 0.576194 0.125182
443.2363
499.0652
512.8215
629.3506
636.7128
683.3155
0.1996 0.576194 0.187773
424.0002
467.4303
532.9608
633.8654
661.8949
695.3229
0.1996 0.576194 0.250363
413.4991
438.6073
558.1487
613.1788
688.1664
705.3424
0.1996 0.576194 -0.312954
418.1952
418.1952
585.9858
585.9858
703.5592
703.5592
0.299399 0.518575 0.0
514.192
538.7106
562.9682
577.3409
596.9133
702.8303
0.299399 0.518575 0.062591
503.16
542.1792
546.5184
605.0366
630.262
703.1377
0.299399 0.518575 0.125182
487.3945
518.3154
564.2203
650.2157
674.2408
700.412
0.299399 0.518575 0.187773
467.1617
491.1009
584.6988
678.8047
689.9977
699.2997
0.299399 0.518575 0.250363
444.6701
459.1785
606.7423
661.4969
696.0166
703.969
0.299399 0.518575 -0.312954
438.396
438.396
632.8073
632.8073
700.7439
700.7439
P	=	3799.89	V	=	86.5488	E	=	-655.01939324
0.0 0.0 0.0
-0.0
-0.0
0.0
394.6792
394.6792
723.8314
0.0 0.0 0.062585
-88.5836
-88.5836
69.1848
375.3833
375.3833
709.1072
0.0 0.0 0.12517
-126.4044
-126.4044
185.1734
334.5555
334.5555
676.3232
0.0 0.0 0.187756
16.9839
16.9839
307.3128
307.3128
330.6604
645.1892
0.0 0.0 0.250341
199.8158
199.8158
299.91
299.91
466.4874
615.4417
0.0 0.0 -0.312926
275.5219
275.5219
275.5219
275.5219
562.8697
562.8697
0.0 0.115243 0.0
130.5529
202.3602
288.0881
420.3323
471.659
737.6582
0.0 0.115243 0.062585
112.1973
194.9778
305.9927
405.9545
461.8871
728.3991
0.0 0.115243 0.12517
102.0047
202.3844
357.2166
375.1698
439.1006
706.3431
0.0 0.115243 0.187756
167.8145
248.3223
351.6392
415.336
438.1407
680.6489
0.0 0.115243 0.250341
253.5384
310.1693
338.8497
392.9612
528.0012
649.9188
0.0 0.115243 -0.312926
312.9228
312.9228
360.9524
360.9524
601.7572
601.7572
0.0 0.230485 0.0
231.9947
344.0418
471.6913
503.2857
600.4096
745.6271
0.0 0.230485 0.062585
234.2973
350.8931
463.6512
521.2521
597.1933
747.6697
0.0 0.230485 0.12517
249.9267
371.0039
444.8543
560.1954
584.4894
748.6176
0.0 0.230485 0.187756
287.7355
398.2782
424.9118
553.6839
603.8323
738.8361
0.0 0.230485 0.250341
336.5592
405.4693
428.8957
511.5289
642.2964
714.3874
0.0 0.230485 -0.312926
378.132
378.132
466.5808
466.5808
679.869
679.869
0.0 0.345728 0.0
289.718
396.3345
510.8132
607.9881
676.8731
696.9867
0.0 0.345728 0.062585
291.2544
399.6701
502.2343
617.4411
655.584
719.2971
0.0 0.345728 0.12517
303.5265
408.9726
482.2243
612.9657
653.9014
742.6233
0.0 0.345728 0.187756
335.4611
423.6249
461.3454
575.2296
681.2581
752.2462
0.0 0.345728 0.250341
378.7292
442.13
446.7273
528.6105
707.1809
746.248
0.0 0.345728 -0.312926
416.6226
416.6226
482.5687
482.5687
729.4048
729.4048
0.0 0.46097 0.0
310.2692
388.9283
526.2404
592.8568
624.6613
689.6109
0.0 0.46097 0.062585
301.6554
377.3809
512.1771
572.6388
627.806
690.0901
0.0 0.46097 0.12517
295.6514
356.817
481.7811
530.6856
638.6782
696.1963
0.0 0.46097 0.187756
323.9855
357.7091
457.4353
490.3637
667.2222
711.9556
0.0 0.46097 0.250341
377.443
389.0958
443.8003
459.9109
704.6352
728.5889
0.0 0.46097 -0.312926
421.9096
421.9096
428.4912
428.4912
728.8936
728.8936
0.0 -0.576213 0.0
313.402
386.6616
522.1503
528.5748
617.7612
683.1701
0.0 -0.576213 0.062585
298.4974
364.7209
503.0777
511.3034
611.9677
674.5524
0.0 -0.576213 0.12517
280.5415
321.2504
458.8768
474.7177
612.522
666.42
0.0 -0.576213 0.187756
307.2989
310.5033
422.1991
448.3712
643.097
681.8482
0.0 -0.576213 0.250341
348.4173
368.7628
407.5157
438.2398
690.3792
710.0241
0.0 -0.576213 -0.312926
389.3482
389.3482
418.2169
418.2169
718.4414
718.4414
0.099803 0.172864 0.0
241.7082
316.426
423.6247
490.6044
555.9132
748.2561
0.099803 0.172864 0.062585
243.6165
317.4067
437.4495
490.9293
551.9476
747.1404
0.099803 0.172864 0.12517
257.6145
328.6803
445.0894
514.0619
538.3665
741.2837
0.099803 0.172864 0.187756
292.6666
352.2114
435.2047
512.8933
560.5876
725.6067
0.099803 0.172864 0.250341
338.5897
378.3905
425.7057
477.517
610.3281
697.1465
0.099803 0.172864 -0.312926
375.2886
375.2886
440.8298
440.8298
657.3101
657.3101
0.099803 0.288106 0.0
335.791
397.5161
508.7497
583.9135
637.8592
727.5208
0.099803 0.288106 0.062585
341.6591
402.0392
514.0762
591.9816
631.144
738.0763
0.099803 0.288106 0.12517
357.8815
413.7555
514.8781
601.4656
629.8736
753.6616
0.099803 0.288106 0.187756
380.8917
427.1632
503.8733
574.2009
658.1047
754.5225
0.099803 0.288106 0.250341
406.8969
439.3401
489.0732
533.349
685.2742
737.3526
0.099803 0.288106 -0.312926
432.4446
432.4446
496.8982
496.8982
711.4176
711.4176
0.099803 0.403349 0.0
372.6124
417.3726
549.7862
614.8922
651.3741
682.0851
0.099803 0.403349 0.062585
370.7824
419.3609
543.3266
609.8243
644.3272
698.1438
0.099803 0.403349 0.12517
370.3187
426.7392
521.4487
594.0966
652.4989
720.5546
0.099803 0.403349 0.187756
379.5725
443.2386
493.7755
568.2797
678.8502
734.9662
0.099803 0.403349 0.250341
401.021
456.6508
479.3631
538.0411
707.4013
737.7994
0.099803 0.403349 -0.312926
430.3879
430.3879
506.7709
506.7709
728.394
728.394
0.099803 0.518592 0.0
379.6372
418.7715
556.93
558.7876
613.501
685.7899
0.099803 0.518592 0.062585
370.8598
410.4904
525.5445
566.014
614.4096
681.7636
0.099803 0.518592 0.12517
352.8778
401.2494
479.5884
554.9577
625.2945
682.0015
0.099803 0.518592 0.187756
347.6136
418.2068
441.2182
537.4866
656.5399
697.7055
0.099803 0.518592 0.250341
368.2721
418.1998
457.6511
520.5301
696.3814
717.5578
0.099803 0.518592 -0.312926
396.8119
396.8119
495.8965
495.8965
720.5947
720.5947
0.199606 0.345728 0.0
439.28
452.952
544.5823
628.1164
654.614
679.2705
0.199606 0.345728 0.062585
434.7018
462.6249
562.8238
605.8478
655.3506
702.2923
0.199606 0.345728 0.12517
427.667
483.7299
572.1546
593.7247
659.5546
730.814
0.199606 0.345728 0.187756
423.4353
500.4117
540.8248
599.3637
676.5303
741.7551
0.199606 0.345728 0.250341
428.2176
483.9132
536.9068
580.1043
699.1646
734.6986
0.199606 0.345728 -0.312926
449.8767
449.8767
555.5459
555.5459
718.7001
718.7001
0.199606 0.46097 0.0
467.0539
489.0184
580.0362
608.2536
611.8194
691.3034
0.199606 0.46097 0.062585
455.114
501.8557
568.1249
596.3311
647.3641
691.1414
0.199606 0.46097 0.12517
437.7689
521.7114
529.6904
627.3956
665.43
700.8398
0.199606 0.46097 0.187756
423.9861
494.3289
542.8986
639.2535
676.4733
717.0135
0.199606 0.46097 0.250341
420.4754
461.3011
566.0434
618.9057
700.4572
722.3191
0.199606 0.46097 -0.312926
433.5534
433.5534
591.9611
591.9611
716.69
716.69
0.199606 0.576213 0.0
487.6086
491.4574
561.8591
600.322
600.3572
699.9311
0.199606 0.576213 0.062585
470.4239
505.8342
539.9706
611.4158
622.7671
697.0131
0.199606 0.576213 0.12517
449.2334
506.8141
520.9091
640.3601
646.6475
695.7967
0.199606 0.576213 0.187756
429.9087
474.2607
541.6347
643.4284
673.4931
707.867
0.199606 0.576213 0.250341
419.9943
445.4273
568.0391
623.2434
700.8421
718.4459
0.199606 0.576213 -0.312926
425.1552
425.1552
596.4761
596.4761
716.8722
716.8722
0.299409 0.518592 0.0
521.7343
548.9459
571.398
588.9403
608.9085
716.4147
0.299409 0.518592 0.062585
510.2038
550.3218
556.0309
615.4825
640.8445
715.7962
0.299409 0.518592 0.12517
492.8037
524.8722
572.3876
659.7246
684.0876
711.4626
0.299409 0.518592 0.187756
472.1231
496.9646
593.3987
688.5107
701.0671
709.8327
0.299409 0.518592 0.250341
450.9666
465.9423
617.3852
672.6102
708.2776
716.1279
0.299409 0.518592 -0.312926
445.8123
445.8123
644.5977
644.5977
713.7987
713.7987
P	=	3999.98	V	=	85.5122	E	=	-654.99191299
0.0 0.0 0.0
0.0
0.0
0.0
404.9636
404.9636
738.0716
0.0 0.0 0.062581
-86.2011
-86.2011
78.1701
385.2824
385.2824
723.9825
0.0 0.0 0.125162
-121.1516
-121.1516
196.0213
343.0779
343.0779
692.0907
0.0 0.0 0.187742
47.1776
47.1776
313.3908
313.3908
340.3729
660.1877
0.0 0.0 0.250323
204.7699
204.7699
303.8307
303.8307
475.3088
627.7809
0.0 0.0 -0.312904
278.9531
278.9531
278.9531
278.9531
572.5848
572.5848
0.0 0.115245 0.0
133.5625
203.5239
292.3215
429.6618
481.1328
751.4006
0.0 0.115245 0.062581
115.7462
197.455
310.6311
414.5875
470.6963
742.2997
0.0 0.115245 0.125162
106.9563
206.4657
363.413
382.0861
446.3224
720.2885
0.0 0.115245 0.187742
172.7276
252.8335
356.8788
420.9813
445.7998
693.7986
0.0 0.115245 0.250323
258.3523
314.7532
343.4038
397.7693
536.6079
661.4323
0.0 0.115245 -0.312904
317.5664
317.5664
365.559
365.559
611.5621
611.5621
0.0 0.230491 0.0
237.2042
346.7248
479.8274
510.9206
609.6336
758.084
0.0 0.230491 0.062581
238.1252
353.0659
470.7738
528.4188
605.6311
759.6421
0.0 0.230491 0.125162
251.8606
372.6424
450.0769
566.882
591.4801
759.6793
0.0 0.230491 0.187742
290.5145
400.8467
429.5101
559.5865
611.5333
749.457
0.0 0.230491 0.250323
341.8016
411.1315
433.4661
517.5371
651.598
725.106
0.0 0.230491 -0.312904
384.5793
384.5793
472.5132
472.5132
690.3671
690.3671
0.0 0.345736 0.0
295.6689
400.7045
519.3622
617.5185
687.262
707.9132
0.0 0.345736 0.062581
296.1339
403.3755
509.8697
626.4811
665.2525
730.1173
0.0 0.345736 0.125162
306.9123
411.7581
488.1517
620.508
663.156
753.1792
0.0 0.345736 0.187742
339.4997
426.8591
466.7281
581.8723
690.9349
763.0223
0.0 0.345736 0.250323
384.8324
448.5063
451.6395
535.1267
718.0007
757.6562
0.0 0.345736 -0.312904
423.7478
423.7478
488.8089
488.8089
741.0016
741.0016
0.0 0.460981 0.0
315.6303
394.1956
536.4778
603.0793
635.0369
701.5434
0.0 0.460981 0.062581
307.3086
383.1748
521.8733
582.6897
638.5731
702.3306
0.0 0.460981 0.125162
302.0476
363.5652
490.1579
540.2774
650.1692
708.9675
0.0 0.460981 0.187742
330.9567
364.5926
464.5306
498.9206
679.2436
724.8832
0.0 0.460981 0.250323
384.454
395.3534
450.379
467.0437
716.8505
741.2584
0.0 0.460981 -0.312904
428.6464
428.6464
434.664
434.664
741.2609
741.2609
0.0 -0.576227 0.0
318.2133
391.2758
533.1054
539.8029
628.4542
695.7723
0.0 -0.576227 0.062581
304.415
370.9594
514.4238
522.2093
623.3116
687.7662
0.0 -0.576227 0.125162
288.7738
330.7409
470.5351
484.5431
625.1717
680.6913
0.0 -0.576227 0.187742
316.0972
320.6042
432.5218
456.4366
656.2979
696.1391
0.0 -0.576227 0.250323
355.9453
376.212
415.1356
444.8184
703.1891
723.3426
0.0 -0.576227 -0.312904
395.521
395.521
424.5842
424.5842
731.0712
731.0712
0.099805 0.172868 0.0
246.1197
318.6897
430.5803
498.8724
565.0678
761.0794
0.099805 0.172868 0.062581
247.0721
319.4782
443.7754
498.3857
560.2484
759.5858
0.099805 0.172868 0.125162
259.8637
330.4304
450.3432
520.625
544.9803
752.9376
0.099805 0.172868 0.187742
295.7859
354.7299
440.0124
518.5059
567.9505
736.6673
0.099805 0.172868 0.250323
343.6974
382.7461
431.2468
483.1998
619.2978
707.9203
0.099805 0.172868 -0.312904
381.1499
381.1499
446.6768
446.6768
667.5474
667.5474
0.099805 0.288113 0.0
341.5304
401.4127
516.3187
593.6057
647.5713
738.7542
0.099805 0.288113 0.062581
346.1525
405.065
520.7089
600.8511
640.0566
748.807
0.099805 0.288113 0.125162
360.5379
415.61
520.0669
608.219
638.1562
763.6149
0.099805 0.288113 0.187742
383.8801
429.797
508.9286
580.1721
666.758
764.5481
0.099805 0.288113 0.250323
412.025
444.4328
495.3199
539.8275
695.4392
748.2235
0.099805 0.288113 -0.312904
438.9188
438.9188
503.816
503.816
722.6209
722.6209
0.099805 0.403359 0.0
378.786
422.6384
558.7843
625.3299
661.0856
693.33
0.099805 0.403359 0.062581
376.1892
424.2771
551.6446
619.1052
654.4443
709.0876
0.099805 0.403359 0.125162
374.4694
431.2438
528.3538
601.7987
662.7108
731.3965
0.099805 0.403359 0.187742
383.6188
448.334
499.99
575.3711
689.4318
746.1813
0.099805 0.403359 0.250323
406.1716
462.5809
486.3612
545.349
718.8989
749.6662
0.099805 0.403359 -0.312904
436.4809
436.4809
514.3415
514.3415
740.4859
740.4859
0.099805 0.518604 0.0
385.4408
423.9637
566.4527
569.3994
624.2314
698.2132
0.099805 0.518604 0.062581
376.6903
416.4842
535.1041
576.0964
625.357
694.3681
0.099805 0.518604 0.125162
359.1284
408.4645
488.3071
564.3401
636.8257
694.987
0.099805 0.518604 0.187742
354.1029
425.9321
448.7395
545.9019
668.6183
710.8026
0.099805 0.518604 0.250323
374.1896
424.4596
465.4684
528.3159
708.737
730.4136
0.099805 0.518604 -0.312904
402.4448
402.4448
503.5846
503.5846
733.1568
733.1568
0.199611 0.345736 0.0
444.5741
459.4862
553.2303
638.3711
665.6782
688.5933
0.199611 0.345736 0.062581
438.9828
468.3642
570.533
614.6265
665.8122
711.7712
0.199611 0.345736 0.125162
430.0999
488.3716
578.9349
599.9904
669.2499
740.1133
0.199611 0.345736 0.187742
425.7211
505.2605
547.022
605.6893
686.4461
751.6692
0.199611 0.345736 0.250323
432.4504
489.6679
544.3631
587.7017
710.3079
745.9384
0.199611 0.345736 -0.312904
455.7877
455.7877
563.8678
563.8678
730.6252
730.6252
0.199611 0.460981 0.0
472.8596
496.4662
589.8207
616.007
622.7424
703.119
0.199611 0.460981 0.062581
460.3819
508.6348
576.1944
605.6593
656.8199
702.3767
0.199611 0.460981 0.125162
441.6292
527.9651
536.0857
635.6987
675.0177
711.1209
0.199611 0.460981 0.187742
427.4537
499.9557
549.6189
647.0199
687.0668
727.6544
0.199611 0.460981 0.250323
425.0675
467.0766
574.2596
627.5298
712.0932
734.0583
0.199611 0.460981 -0.312904
439.2847
439.2847
601.0241
601.0241
728.9727
728.9727
0.199611 0.576227 0.0
492.9393
498.9934
569.4599
610.9151
611.1227
712.3202
0.199611 0.576227 0.062581
475.7257
512.8453
547.4532
621.6228
632.3749
708.9656
0.199611 0.576227 0.125162
453.6576
512.9948
527.7352
650.0746
655.387
707.1764
0.199611 0.576227 0.187742
434.1448
479.5619
548.9907
652.0178
683.8617
719.3506
0.199611 0.576227 0.250323
424.9206
450.8107
576.6784
632.3521
712.4594
730.6013
0.199611 0.576227 -0.312904
430.6746
430.6746
605.874
605.874
729.2597
729.2597
0.299416 0.518604 0.0
527.51
557.8639
577.6976
599.1986
619.6066
728.5267
0.299416 0.518604 0.062581
515.5575
556.6523
564.2197
624.6565
650.056
727.1529
0.299416 0.518604 0.125162
496.6152
529.7493
579.3278
668.0813
692.7058
721.5418
0.299416 0.518604 0.187742
475.4563
501.2148
600.7826
697.2065
711.2297
719.2516
0.299416 0.518604 0.250323
455.5071
471.0129
626.6347
682.7108
719.4519
727.1733
0.299416 0.518604 -0.312904
451.4153
451.4153
655.1089
655.1089
725.7289
725.7289

weight
   0.0000000   0.0000000   0.0000000   0.0020000   
   0.0000000   0.0000000   0.1000000   0.0040000   
   0.0000000   0.0000000   0.2000000   0.0040000   
   0.0000000   0.0000000   0.3000000   0.0040000   
   0.0000000   0.0000000   0.4000000   0.0040000   
   0.0000000   0.0000000  -0.5000000   0.0020000   
   0.0000000   0.1000000   0.0000000   0.0120000   
   0.0000000   0.1000000   0.1000000   0.0240000   
   0.0000000   0.1000000   0.2000000   0.0240000   
   0.0000000   0.1000000   0.3000000   0.0240000   
   0.0000000   0.1000000   0.4000000   0.0240000   
   0.0000000   0.1000000  -0.5000000   0.0120000   
   0.0000000   0.2000000   0.0000000   0.0120000   
   0.0000000   0.2000000   0.1000000   0.0240000   
   0.0000000   0.2000000   0.2000000   0.0240000   
   0.0000000   0.2000000   0.3000000   0.0240000   
   0.0000000   0.2000000   0.4000000   0.0240000   
   0.0000000   0.2000000  -0.5000000   0.0120000   
   0.0000000   0.3000000   0.0000000   0.0120000   
   0.0000000   0.3000000   0.1000000   0.0240000   
   0.0000000   0.3000000   0.2000000   0.0240000   
   0.0000000   0.3000000   0.3000000   0.0240000   
   0.0000000   0.3000000   0.4000000   0.0240000   
   0.0000000   0.3000000  -0.5000000   0.0120000   
   0.0000000   0.4000000   0.0000000   0.0120000   
   0.0000000   0.4000000   0.1000000   0.0240000   
   0.0000000   0.4000000   0.2000000   0.0240000   
   0.0000000   0.4000000   0.3000000   0.0240000   
   0.0000000   0.4000000   0.4000000   0.0240000   
   0.0000000   0.4000000  -0.5000000   0.0120000   
   0.0000000  -0.5000000   0.0000000   0.0060000   
   0.0000000  -0.5000000   0.1000000   0.0120000   
   0.0000000  -0.5000000   0.2000000   0.0120000   
   0.0000000  -0.5000000   0.3000000   0.0120000   
   0.0000000  -0.5000000   0.4000000   0.0120000   
   0.0000000  -0.5000000  -0.5000000   0.0060000   
   0.1000000   0.1000000   0.0000000   0.0120000   
   0.1000000   0.1000000   0.1000000   0.0240000   
   0.1000000   0.1000000   0.2000000   0.0240000   
   0.1000000   0.1000000   0.3000000   0.0240000   
   0.1000000   0.1000000   0.4000000   0.0240000   
   0.1000000   0.1000000  -0.5000000   0.0120000   
   0.1000000   0.2000000   0.0000000   0.0240000   
   0.1000000   0.2000000   0.1000000   0.0480000   
   0.1000000   0.2000000   0.2000000   0.0480000   
   0.1000000   0.2000000   0.3000000   0.0480000   
   0.1000000   0.2000000   0.4000000   0.0480000   
   0.1000000   0.2000000  -0.5000000   0.0240000   
   0.1000000   0.3000000   0.0000000   0.0240000   
   0.1000000   0.3000000   0.1000000   0.0480000   
   0.1000000   0.3000000   0.2000000   0.0480000   
   0.1000000   0.3000000   0.3000000   0.0480000   
   0.1000000   0.3000000   0.4000000   0.0480000   
   0.1000000   0.3000000  -0.5000000   0.0240000   
   0.1000000   0.4000000   0.0000000   0.0240000   
   0.1000000   0.4000000   0.1000000   0.0480000   
   0.1000000   0.4000000   0.2000000   0.0480000   
   0.1000000   0.4000000   0.3000000   0.0480000   
   0.1000000   0.4000000   0.4000000   0.0480000   
   0.1000000   0.4000000  -0.5000000   0.0240000   
   0.2000000   0.2000000   0.0000000   0.0120000   
   0.2000000   0.2000000   0.1000000   0.0240000   
   0.2000000   0.2000000   0.2000000   0.0240000   
   0.2000000   0.2000000   0.3000000   0.0240000   
   0.2000000   0.2000000   0.4000000   0.0240000   
   0.2000000   0.2000000  -0.5000000   0.0120000   
   0.2000000   0.3000000   0.0000000   0.0240000   
   0.2000000   0.3000000   0.1000000   0.0480000   
   0.2000000   0.3000000   0.2000000   0.0480000   
   0.2000000   0.3000000   0.3000000   0.0480000   
   0.2000000   0.3000000   0.4000000   0.0480000   
   0.2000000   0.3000000  -0.5000000   0.0240000   
   0.2000000   0.4000000   0.0000000   0.0120000   
   0.2000000   0.4000000   0.1000000   0.0240000   
   0.2000000   0.4000000   0.2000000   0.0240000   
   0.2000000   0.4000000   0.3000000   0.0240000   
   0.2000000   0.4000000   0.4000000   0.0240000   
   0.2000000   0.4000000  -0.5000000   0.0120000   
   0.3000000   0.3000000   0.0000000   0.0120000   
   0.3000000   0.3000000   0.1000000   0.0240000   
   0.3000000   0.3000000   0.2000000   0.0240000   
   0.3000000   0.3000000   0.3000000   0.0240000   
   0.3000000   0.3000000   0.4000000   0.0240000   
   0.3000000   0.3000000  -0.5000000   0.0120000   