Number of volumes (nv), q-vectors (nq), normal mode (np), formula units(nm)
23 84 6 1

P	=	0.03	V	=	140.61218	E	=	-655.48092778
0.0 0.0 0.0
-0.0
0.0
0.0
204.9933
204.9933
289.8957
0.0 0.0 0.06271
32.4667
32.4667
63.7058
202.7925
202.7925
289.1843
0.0 0.0 0.125419
63.3296
63.3296
123.311
195.7832
195.7832
286.5235
0.0 0.0 0.188129
91.9315
91.9315
175.2707
183.295
183.295
280.3641
0.0 0.0 0.250839
118.5364
118.5364
165.4092
165.4092
217.1301
268.3579
0.0 0.0 -0.313549
143.3034
143.3034
143.3085
143.3085
247.8357
248.0379
0.0 0.115121 0.0
55.9641
65.0569
113.1741
212.4111
224.2842
286.0101
0.0 0.115121 0.06271
71.0181
73.0211
124.7682
210.4786
221.9574
285.6209
0.0 0.115121 0.125419
91.6932
96.6779
155.4937
204.3733
214.7897
283.9573
0.0 0.115121 0.188129
114.0359
120.6164
193.113
193.5027
202.7777
279.4227
0.0 0.115121 0.250839
136.745
143.3334
177.8894
186.1117
227.3166
269.6893
0.0 0.115121 -0.313549
158.4425
158.5091
165.2918
166.2797
252.5273
253.1371
0.0 0.230243 0.0
108.2363
115.8517
199.5455
226.8911
258.9768
275.4961
0.0 0.230243 0.06271
113.2784
120.7823
205.6845
225.4534
253.951
278.1988
0.0 0.230243 0.125419
127.0225
133.6036
220.9942
221.3509
242.7358
282.1557
0.0 0.230243 0.188129
145.6438
150.6714
213.0505
228.1784
241.3463
283.5487
0.0 0.230243 0.250839
166.3206
168.9022
201.4087
210.9397
260.3462
280.5627
0.0 0.230243 -0.313549
186.2398
186.4391
187.7725
191.1127
272.3309
274.3901
0.0 0.345364 0.0
143.8395
152.2974
236.9809
245.9526
261.5482
278.6205
0.0 0.345364 0.06271
147.7819
151.7784
235.8287
250.3764
256.3473
282.8706
0.0 0.345364 0.125419
152.9311
158.5275
232.2806
243.5934
263.3177
289.596
0.0 0.345364 0.188129
159.7601
173.4413
226.0887
228.8308
276.7942
294.6213
0.0 0.345364 0.250839
173.1583
189.5625
211.4484
216.9144
288.0758
296.3899
0.0 0.345364 -0.313549
190.8624
192.775
204.4863
204.6264
294.0734
295.0436
0.0 0.460485 0.0
151.1855
183.511
240.3654
248.395
260.5368
277.499
0.0 0.460485 0.06271
154.756
178.9045
239.1547
244.3211
266.0277
281.3065
0.0 0.460485 0.125419
164.8393
170.7164
234.9217
235.4908
277.6454
288.7083
0.0 0.460485 0.188129
167.9402
179.202
221.4693
229.4369
288.6107
295.6565
0.0 0.460485 0.250839
174.5058
194.8669
204.7881
220.7694
295.8785
300.0334
0.0 0.460485 -0.313549
186.9951
188.9956
209.0899
209.2754
299.3128
300.5147
0.0 -0.575606 0.0
150.719
195.9684
240.7745
241.958
263.1226
271.7833
0.0 -0.575606 0.06271
154.3077
189.3684
238.5166
239.4018
269.2016
275.8426
0.0 -0.575606 0.125419
164.3341
177.398
230.0297
235.4593
280.7556
284.3986
0.0 -0.575606 0.188129
170.5116
178.6686
217.6912
229.1819
290.7672
292.3536
0.0 -0.575606 0.250839
173.5836
194.3622
202.172
220.4167
296.4257
297.8135
0.0 -0.575606 -0.313549
183.6845
187.9251
208.5645
208.9536
297.7623
300.104
0.099698 0.172682 0.0
94.8724
111.2637
175.6351
227.0865
247.7975
278.7768
0.099698 0.172682 0.06271
101.1782
116.3155
183.0646
225.6143
244.3811
279.7188
0.099698 0.172682 0.125419
117.3184
129.4963
201.9616
221.0257
235.0481
281.1996
0.099698 0.172682 0.188129
138.2724
146.8866
211.9597
221.1377
226.3676
280.7833
0.099698 0.172682 0.250839
160.2004
165.3714
200.0342
203.8705
248.4891
276.1885
0.099698 0.172682 -0.313549
177.3026
179.2807
187.4851
189.2063
265.5679
265.6719
0.099698 0.287803 0.0
138.1329
151.8433
222.5249
247.3138
266.3667
270.0411
0.099698 0.287803 0.06271
138.189
156.0715
227.4281
246.6638
257.2238
277.525
0.099698 0.287803 0.125419
141.6267
166.843
233.9209
242.8568
251.465
284.5873
0.099698 0.287803 0.188129
151.5581
181.0203
224.4489
234.5358
263.5809
288.8648
0.099698 0.287803 0.250839
167.1276
194.7594
208.7073
225.559
276.9804
289.3369
0.099698 0.287803 -0.313549
184.7942
186.7511
212.5975
214.0359
285.2158
286.215
0.099698 0.402925 0.0
169.4212
173.6804
241.9527
252.4123
258.998
278.7404
0.099698 0.402925 0.06271
167.0251
175.9816
241.8925
248.4621
262.978
281.9155
0.099698 0.402925 0.125419
162.0103
184.7587
232.0061
247.7015
271.7141
288.3512
0.099698 0.402925 0.188129
162.0189
197.4482
217.4629
243.6297
282.7192
294.181
0.099698 0.402925 0.250839
169.97
199.9372
212.0996
236.0831
291.4995
297.3332
0.099698 0.402925 -0.313549
183.2016
183.9955
224.9769
225.4608
296.4179
296.617
0.099698 0.518046 0.0
171.8099
195.5388
241.4176
246.8613
261.636
276.1023
0.099698 0.518046 0.06271
173.6537
190.6666
235.233
249.5116
267.1963
278.6335
0.099698 0.518046 0.125419
172.3127
189.4627
224.5887
249.1626
278.3288
284.9348
0.099698 0.518046 0.188129
167.5649
200.1978
211.1686
244.5783
288.1925
291.8993
0.099698 0.518046 0.250839
170.5445
195.5856
213.6826
236.8771
294.0985
296.925
0.099698 0.518046 -0.313549
179.5289
182.2767
226.2942
226.5422
296.4194
298.265
0.199396 0.345364 0.0
169.8351
191.5448
233.9625
253.6214
269.9085
271.2941
0.199396 0.345364 0.06271
166.1369
194.5147
239.941
246.0362
270.7976
275.59
0.199396 0.345364 0.125419
160.745
202.6148
232.1805
250.9556
270.6849
283.67
0.199396 0.345364 0.188129
160.6598
211.0866
219.0887
254.3445
276.4065
289.7194
0.199396 0.345364 0.250839
167.9112
197.3722
228.306
249.0695
285.2694
292.4596
0.199396 0.345364 -0.313549
180.4463
181.726
239.5946
240.1052
291.0028
291.125
0.199396 0.460485 0.0
194.8414
208.344
240.5404
246.1014
264.0126
282.569
0.199396 0.460485 0.06271
188.0829
211.9369
233.7732
252.0002
268.9044
282.2956
0.199396 0.460485 0.125419
176.9619
218.4987
222.1527
261.8401
275.7239
283.4316
0.199396 0.460485 0.188129
170.0478
205.3767
230.7483
264.6073
281.8808
288.1787
0.199396 0.460485 0.250839
170.6707
190.23
241.8748
260.0106
288.1595
291.9607
0.199396 0.460485 -0.313549
177.4448
178.3969
251.9188
252.1278
291.5758
292.2732
0.199396 0.575606 0.0
206.3038
210.4513
233.0323
255.4026
257.9803
284.871
0.199396 0.575606 0.06271
197.7428
215.2127
226.7781
260.1671
263.5678
284.4654
0.199396 0.575606 0.125419
184.647
214.6999
223.1573
266.2159
274.2681
284.5473
0.199396 0.575606 0.188129
174.7936
201.1681
233.3531
266.4
283.7211
287.4747
0.199396 0.575606 0.250839
172.1148
187.9228
244.0914
261.5109
289.6602
291.1063
0.199396 0.575606 -0.313549
176.2806
178.1694
253.6278
253.9583
291.3963
292.8031
0.299094 0.518046 0.0
211.838
228.0054
233.4834
250.1827
259.0796
291.214
0.299094 0.518046 0.06271
204.9477
221.2682
236.1582
256.2571
264.2256
290.1546
0.299094 0.518046 0.125419
192.2451
208.2751
242.7755
267.0575
273.2844
287.257
0.299094 0.518046 0.188129
181.413
194.8118
251.5296
275.654
281.0753
283.7344
0.299094 0.518046 0.250839
175.8387
183.6005
260.5359
274.9662
285.1313
285.9595
0.299094 0.518046 -0.313549
176.5671
176.9088
268.4493
268.7046
287.2075
287.3604
P	=	500.06	V	=	122.33744	E	=	-655.45369969
0.0 0.0 0.0
-0.0
-0.0
0.0
254.8351
254.8351
405.1357
0.0 0.0 0.062653
40.1308
40.1308
82.0388
252.0567
252.0567
402.3465
0.0 0.0 0.125306
78.2262
78.2262
159.4732
243.2053
243.2053
394.0788
0.0 0.0 0.187958
113.5063
113.5063
227.4446
227.4446
228.0764
380.0971
0.0 0.0 0.250611
146.4125
146.4125
204.9284
204.9284
284.6767
358.9426
0.0 0.0 -0.313264
177.2376
177.2376
177.2376
177.2376
327.9591
328.005
0.0 0.115154 0.0
69.177
80.2881
146.2334
264.9717
281.6715
398.7455
0.0 0.115154 0.062653
88.0102
90.1921
161.4021
262.5238
278.6854
396.5052
0.0 0.115154 0.125306
113.4107
120.2
201.5999
254.7132
269.4895
389.8334
0.0 0.115154 0.187958
141.0634
150.475
240.7748
251.2684
254.0938
378.3313
0.0 0.115154 0.250611
169.1948
179.1909
220.8356
232.7308
297.6404
360.4474
0.0 0.115154 -0.313264
196.29
196.3392
206.841
207.4994
333.9037
334.374
0.0 0.230309 0.0
134.1824
143.7993
260.2167
285.6498
331.9842
381.3026
0.0 0.230309 0.062653
140.6488
149.9615
268.122
283.7669
326.8366
382.1325
0.0 0.230309 0.125306
158.5435
166.0412
277.7751
288.5565
312.9771
382.9659
0.0 0.230309 0.187958
183.3428
187.3252
267.057
292.9635
315.1689
380.8401
0.0 0.230309 0.250611
210.0988
211.1998
251.5408
269.0668
340.9804
373.5089
0.0 0.230309 -0.313264
232.0366
232.1086
239.8763
242.1081
359.7779
361.465
0.0 0.345463 0.0
180.3075
190.3023
302.1958
325.5961
357.4502
366.5934
0.0 0.345463 0.062653
185.2156
190.3639
300.541
331.0586
344.9216
377.2256
0.0 0.345463 0.125306
193.3684
198.6309
295.4036
322.987
348.6757
388.1828
0.0 0.345463 0.187958
203.6191
217.3202
286.5037
300.3837
366.5052
394.9057
0.0 0.345463 0.250611
222.3043
237.7718
273.6565
274.7285
382.2404
396.2792
0.0 0.345463 -0.313264
246.9349
248.0353
257.08
257.1777
391.7773
392.7774
0.0 0.460617 0.0
192.0214
232.4251
310.2038
333.6223
350.3752
376.2023
0.0 0.460617 0.062653
196.3724
228.1343
308.3522
326.9332
357.5586
381.7881
0.0 0.460617 0.125306
208.7264
220.3257
302.8736
312.4897
372.7572
392.5891
0.0 0.460617 0.187958
218.2533
226.6914
292.8292
293.9936
388.2407
402.0152
0.0 0.460617 0.250611
227.1865
246.8149
269.188
281.6531
399.6926
406.9786
0.0 0.460617 -0.313264
244.8937
246.3726
265.6697
265.8565
405.8287
406.4013
0.0 -0.575772 0.0
192.859
250.6718
312.2707
321.2545
355.3563
375.2917
0.0 -0.575772 0.062653
197.1001
243.9265
310.2132
317.0585
362.7408
380.3907
0.0 -0.575772 0.125306
209.2167
231.1935
304.3424
305.7744
378.192
391.509
0.0 -0.575772 0.187958
223.7668
227.1233
288.5789
295.1499
392.9575
401.9239
0.0 -0.575772 0.250611
228.1457
247.4018
266.796
282.6679
403.2234
407.8308
0.0 -0.575772 -0.313264
242.9904
245.7896
266.4867
266.7276
407.5374
408.9014
0.099727 0.172731 0.0
117.4066
138.163
227.3915
286.3603
315.4738
386.7938
0.099727 0.172731 0.062653
125.4572
144.5321
236.8913
284.5118
311.4375
386.1557
0.099727 0.172731 0.125306
146.1473
161.0067
260.5097
279.4731
299.747
383.8057
0.099727 0.172731 0.187958
173.0848
182.5626
265.1273
281.5924
295.3925
378.4073
0.099727 0.172731 0.250611
201.3635
205.354
250.0985
258.8215
325.5452
367.941
0.099727 0.172731 -0.313264
221.6645
223.0912
237.0657
238.1298
350.4934
350.505
0.099727 0.287886 0.0
171.6736
190.0565
286.0455
321.3424
351.1096
365.9278
0.099727 0.287886 0.062653
172.103
195.3588
290.9325
321.801
340.2984
373.6414
0.099727 0.287886 0.125306
177.2209
208.8965
296.2848
318.5733
331.7618
382.323
0.099727 0.287886 0.187958
190.7325
226.6836
288.5803
300.4029
347.6367
386.7424
0.099727 0.287886 0.250611
211.6871
243.8549
269.0499
285.4932
365.6608
385.6252
0.099727 0.287886 -0.313264
235.1912
236.8317
269.2392
270.4275
378.3256
379.1913
0.099727 0.40304 0.0
214.5124
218.06
311.464
341.4124
345.0552
372.2711
0.099727 0.40304 0.062653
210.6163
222.7986
311.872
331.6406
351.9489
378.0573
0.099727 0.40304 0.125306
205.4631
234.3132
303.6816
322.2279
363.4515
388.4407
0.099727 0.40304 0.187958
206.5292
250.2416
284.7608
314.0806
378.1055
396.7344
0.099727 0.40304 0.250611
217.396
257.3878
272.256
302.74
390.6598
400.347
0.099727 0.40304 -0.313264
235.7084
236.4765
287.7412
288.0842
398.2868
398.3947
0.099727 0.518194 0.0
219.7979
248.9524
320.4176
320.8896
352.1118
377.4341
0.099727 0.518194 0.062653
221.5392
244.7853
309.7129
326.1538
359.2569
381.0746
0.099727 0.518194 0.125306
220.3509
244.7563
294.7585
325.3585
374.1588
389.9223
0.099727 0.518194 0.187958
216.062
257.6071
276.3466
318.4665
388.7272
399.0413
0.099727 0.518194 0.250611
220.3245
254.675
275.3118
307.1406
399.0045
404.5125
0.099727 0.518194 -0.313264
233.5463
235.3711
292.2981
292.5053
403.8905
404.9591
0.199453 0.345463 0.0
212.1657
242.5209
302.5898
343.913
356.2714
359.4771
0.199453 0.345463 0.062653
208.1507
246.2315
309.4058
329.5617
359.4114
367.9884
0.199453 0.345463 0.125306
202.3513
256.1669
308.5614
321.3373
361.3536
380.8938
0.199453 0.345463 0.187958
203.0691
266.7425
288.8306
324.8262
369.8661
389.5252
0.199453 0.345463 0.250611
213.3245
254.1426
292.6791
318.4184
381.4857
392.6848
0.199453 0.345463 -0.313264
231.2403
232.2611
306.3585
306.9011
389.8784
389.8785
0.199453 0.460617 0.0
246.1676
267.461
320.2743
321.6366
351.7508
379.3813
0.199453 0.460617 0.062653
238.4742
271.9768
309.8007
329.3341
359.4073
379.5948
0.199453 0.460617 0.125306
225.4476
279.6643
293.9749
340.7771
370.2944
382.745
0.199453 0.460617 0.187958
217.1456
267.1475
299.0674
343.96
379.7588
389.8535
0.199453 0.460617 0.250611
218.1432
246.3069
313.3237
337.9677
388.7628
394.7125
0.199453 0.460617 -0.313264
228.2543
228.951
326.9858
327.046
394.1039
394.5056
0.199453 0.575772 0.0
263.3684
271.7448
306.1981
334.8634
344.8096
385.0192
0.199453 0.575772 0.062653
252.6734
278.7821
297.0532
341.9892
351.9127
385.0024
0.199453 0.575772 0.125306
236.6464
280.1272
289.9144
350.135
366.7161
386.572
0.199453 0.575772 0.187958
224.3943
261.2805
303.6583
350.0152
380.9274
391.2464
0.199453 0.575772 0.250611
220.9111
242.6843
318.2928
342.9614
390.8932
395.4413
0.199453 0.575772 -0.313264
227.1155
228.4689
331.8023
331.9559
395.2539
396.1284
0.29918 0.518194 0.0
270.8966
297.7902
304.7984
328.8189
343.0801
390.6644
0.29918 0.518194 0.062653
262.4579
288.1334
309.0003
337.2258
350.8701
389.1765
0.29918 0.518194 0.125306
246.5171
270.5126
317.9822
352.7836
365.0099
385.1988
0.29918 0.518194 0.187958
232.4911
252.0442
329.8611
364.4932
377.2631
381.2332
0.29918 0.518194 0.250611
224.9443
236.1661
342.429
363.1825
383.7112
384.7638
0.29918 0.518194 -0.313264
226.0864
226.4193
353.9804
354.06
386.6427
386.7621
P	=	999.97	V	=	112.04588	E	=	-655.40245514
0.0 0.0 0.0
-0.0
0.0
0.0
288.0603
288.0603
482.5072
0.0 0.0 0.062631
45.4623
45.4623
94.5395
284.9213
284.9213
478.3292
0.0 0.0 0.125261
88.4105
88.4105
184.0663
274.8644
274.8644
466.3015
0.0 0.0 0.187892
127.9586
127.9586
256.8595
256.8595
263.8563
447.0649
0.0 0.0 0.250523
164.8343
164.8343
231.1168
231.1168
330.2692
419.7949
0.0 0.0 -0.313154
199.605
199.605
199.6161
199.6161
381.812
381.8786
0.0 0.115195 0.0
77.2399
90.881
168.3782
300.2538
319.8009
474.2902
0.0 0.115195 0.062631
99.0827
102.0628
186.0369
297.4411
316.3849
470.823
0.0 0.115195 0.125261
128.1958
135.9459
232.728
288.4198
305.8438
460.8407
0.0 0.115195 0.187892
159.1625
170.2349
272.2891
287.8598
290.8127
444.7113
0.0 0.115195 0.250523
190.6833
202.5724
249.2898
263.4543
345.0665
421.4182
0.0 0.115195 -0.313154
221.2501
221.3308
233.8601
234.5457
388.6793
389.0131
0.0 0.230389 0.0
150.517
163.1394
300.8767
325.2847
380.3992
451.7862
0.0 0.230389 0.062631
158.3094
170.1116
310.0759
323.0286
374.723
451.8653
0.0 0.230389 0.125261
179.2976
188.1444
315.8731
333.7022
359.0573
450.9468
0.0 0.230389 0.187892
208.0119
211.8551
303.1207
335.3037
364.8986
446.4672
0.0 0.230389 0.250523
237.2956
240.1148
284.8518
307.1002
395.0952
436.1313
0.0 0.230389 -0.313154
262.1951
262.3466
273.302
275.4651
418.6553
419.8591
0.0 0.345584 0.0
205.3332
214.8759
345.7208
378.8568
420.8192
425.1341
0.0 0.345584 0.062631
210.9802
215.4742
343.7351
384.8674
402.8955
441.0441
0.0 0.345584 0.125261
219.8061
226.0823
337.5768
374.8735
406.3015
454.7109
0.0 0.345584 0.187892
232.0983
246.828
326.8022
347.4603
426.7667
462.5256
0.0 0.345584 0.250523
253.8636
269.5872
311.3411
316.3794
445.1607
463.4529
0.0 0.345584 -0.313154
282.972
284.2756
291.6891
291.8654
457.334
457.9916
0.0 0.460778 0.0
219.749
264.3673
355.9856
389.6782
410.2374
442.0881
0.0 0.460778 0.062631
224.8582
260.248
353.8921
381.4268
418.7271
449.1231
0.0 0.460778 0.125261
238.9142
252.8028
347.5622
363.8492
436.5055
462.5951
0.0 0.460778 0.187892
251.1502
258.8716
336.8957
340.1125
454.8348
473.771
0.0 0.460778 0.250523
261.3695
281.206
311.621
321.8992
468.7745
478.8849
0.0 0.460778 -0.313154
282.6661
283.6831
302.8753
302.993
476.7753
477.2321
0.0 -0.575973 0.0
221.3032
286.372
358.7352
373.443
417.0447
444.0672
0.0 -0.575973 0.062631
226.2849
279.6651
356.5053
368.7087
425.4741
450.2437
0.0 -0.575973 0.125261
240.1535
266.7503
349.8598
355.6778
443.614
463.5957
0.0 -0.575973 0.187892
258.9995
260.109
335.2837
338.8779
461.4155
475.6699
0.0 -0.575973 0.250523
263.8776
282.6345
309.1442
323.655
474.2435
481.7746
0.0 -0.575973 -0.313154
281.4436
283.6953
304.4859
304.604
480.6193
481.6114
0.099761 0.172792 0.0
131.4665
156.667
261.8499
326.5961
360.3042
458.8815
0.099761 0.172792 0.062631
140.9305
163.8567
272.7508
324.532
355.7465
457.3759
0.099761 0.172792 0.125261
165.0014
182.3508
298.8253
319.9118
342.348
452.709
0.099761 0.172792 0.187892
195.9028
206.4095
300.5704
321.2252
342.0211
444.0461
0.099761 0.172792 0.250523
228.0771
231.8177
283.276
294.6441
377.462
429.6268
0.099761 0.172792 -0.313154
250.5306
251.6381
269.3933
270.4537
407.5404
407.6258
0.099761 0.287986 0.0
193.1824
216.0518
327.642
371.9458
404.9498
431.84
0.099761 0.287986 0.062631
194.0365
222.0673
332.6242
372.9493
393.9771
439.1015
0.099761 0.287986 0.125261
200.4118
237.3117
337.7088
368.0062
386.0724
448.4077
0.099761 0.287986 0.187892
216.1338
257.1625
329.7321
344.9854
404.3069
452.7362
0.099761 0.287986 0.250523
240.2703
276.202
308.3471
325.471
425.147
450.358
0.099761 0.287986 -0.313154
267.5961
268.9862
306.674
307.9542
440.8224
441.4348
0.099761 0.403181 0.0
244.9163
246.9644
357.0416
399.8498
402.6782
434.8257
0.099761 0.403181 0.062631
239.2963
254.1604
357.4687
386.7697
411.7432
442.4603
0.099761 0.403181 0.125261
233.8839
267.7017
349.7849
372.8258
425.2149
455.7363
0.099761 0.403181 0.187892
235.4067
285.4967
328.9188
361.2633
442.1507
465.7516
0.099761 0.403181 0.250523
247.8525
294.2516
312.8056
347.066
456.9006
469.4978
0.099761 0.403181 -0.313154
269.7104
270.1648
329.1958
329.6796
466.3656
466.4157
0.099761 0.518376 0.0
251.9648
283.7738
368.2483
372.9456
412.525
445.0655
0.099761 0.518376 0.062631
253.675
280.2702
357.7626
377.263
420.8126
449.6355
0.099761 0.518376 0.125261
252.1858
281.8969
340.6314
376.2022
438.3642
460.5307
0.099761 0.518376 0.187892
247.8647
296.2213
319.2143
367.7276
455.8952
471.2131
0.099761 0.518376 0.250523
252.6102
293.0955
316.4685
353.7614
468.7239
476.8465
0.099761 0.518376 -0.313154
268.3902
269.7754
335.9182
336.2085
475.4701
476.2592
0.199523 0.345584 0.0
239.6775
276.6313
347.4057
403.0927
413.4519
419.4635
0.199523 0.345584 0.062631
235.4601
280.8307
354.927
384.0323
419.7329
429.7414
0.199523 0.345584 0.125261
229.4109
291.9064
358.7709
367.8552
422.8543
446.0402
0.199523 0.345584 0.187892
230.5097
303.3915
335.1525
371.5528
432.9071
456.4406
0.199523 0.345584 0.250523
242.4989
290.6659
335.9088
364.2722
446.0883
459.7466
0.199523 0.345584 -0.313154
263.9029
264.7588
350.6097
351.1928
455.9101
456.028
0.199523 0.460778 0.0
279.5645
306.7447
370.8783
372.1094
410.0934
444.4877
0.199523 0.460778 0.062631
271.2789
311.8776
359.3215
380.2858
419.6839
445.0262
0.199523 0.460778 0.125261
257.1209
320.1659
341.5863
393.0314
433.5868
449.4403
0.199523 0.460778 0.187892
247.8191
307.3932
345.2076
396.5362
445.2925
458.0942
0.199523 0.460778 0.250523
248.8038
282.8777
361.0005
389.5579
455.9628
463.5086
0.199523 0.460778 -0.313154
261.1031
261.6074
376.6895
376.8097
462.501
462.7987
0.199523 0.575973 0.0
300.3599
312.4823
353.689
386.5842
402.7167
451.9869
0.199523 0.575973 0.062631
288.5166
321.0887
342.7694
395.6155
410.9247
452.2447
0.199523 0.575973 0.125261
270.8573
323.0364
334.5914
405.6572
428.5758
454.815
0.199523 0.575973 0.187892
257.0387
300.8736
350.691
405.4681
445.9315
460.6882
0.199523 0.575973 0.250523
252.6853
278.529
367.7238
396.9339
458.3614
465.2118
0.199523 0.575973 -0.313154
260.066
261.1272
383.5716
383.8154
464.4318
465.0662
0.299284 0.518376 0.0
309.076
342.8259
352.0685
380.8055
398.7681
456.8181
0.299284 0.518376 0.062631
299.8853
331.5296
357.4098
390.8956
408.3784
454.998
0.299284 0.518376 0.125261
282.2413
311.3994
368.036
409.8037
426.1944
450.292
0.299284 0.518376 0.187892
266.1666
289.8749
382.0295
423.4487
441.5492
446.2434
0.299284 0.518376 0.250523
257.0074
270.6753
396.979
421.6449
449.5031
450.661
0.299284 0.518376 -0.313154
258.3228
258.5887
410.7299
410.9104
452.8982
452.9686
P	=	1499.68	V	=	104.9121	E	=	-655.34244361
0.0 0.0 0.0
0.0
0.0
0.0
314.137
314.137
544.9535
0.0 0.0 0.06261
49.3657
49.3657
104.8873
310.7102
310.7102
539.6908
0.0 0.0 0.125221
95.9488
95.9488
204.2669
299.6932
299.6932
524.6804
0.0 0.0 0.187831
138.8306
138.8306
279.8993
279.8993
292.9815
501.1821
0.0 0.0 0.250442
178.9296
178.9296
251.5643
251.5643
367.1304
468.8946
0.0 0.0 -0.313052
216.9521
216.9521
216.9525
216.9525
425.2555
425.2958
0.0 0.115223 0.0
84.0406
98.3408
185.7749
327.6867
349.7004
535.2518
0.0 0.115223 0.06261
108.1809
110.6325
205.4255
324.5627
345.986
530.8461
0.0 0.115223 0.125221
139.1144
148.3877
257.5919
314.6002
334.3713
518.2678
0.0 0.115223 0.187831
172.7714
185.6279
296.804
314.4852
322.3705
498.3705
0.0 0.115223 0.250442
207.0916
220.8145
271.4581
287.3705
383.1703
470.5626
0.0 0.115223 -0.313052
240.5935
240.6723
255.0137
255.4914
432.6899
432.9488
0.0 0.230446 0.0
163.9118
176.972
332.8471
355.8519
418.5646
508.6583
0.0 0.230446 0.06261
172.7249
184.6449
342.9883
353.3274
412.4856
508.2202
0.0 0.230446 0.125221
196.0001
204.4603
345.3017
369.1602
395.46
505.9191
0.0 0.230446 0.187831
227.6201
230.4414
331.0253
368.613
404.3298
499.3435
0.0 0.230446 0.250442
258.309
263.0213
310.6667
337.0127
438.1572
486.2567
0.0 0.230446 -0.313052
285.6633
285.7715
299.7758
301.6981
465.4868
466.5024
0.0 0.345669 0.0
223.767
234.5253
379.5535
420.8285
471.8043
471.9563
0.0 0.345669 0.06261
230.0261
235.6014
377.3769
427.2375
449.0623
492.5124
0.0 0.345669 0.125221
241.0052
246.7414
370.4769
416.1217
451.8871
508.0747
0.0 0.345669 0.187831
254.8551
269.5332
358.2509
384.9253
474.4857
516.5592
0.0 0.345669 0.250442
279.0511
294.4861
340.7112
349.4639
495.1332
516.9501
0.0 0.345669 -0.313052
311.7335
313.0371
318.8562
318.9202
509.379
509.9395
0.0 0.460892 0.0
240.9395
289.6196
392.0786
434.8629
457.7164
494.9822
0.0 0.460892 0.06261
246.6718
285.7308
389.8727
425.2506
467.2954
502.9858
0.0 0.460892 0.125221
262.2431
278.6991
382.9695
404.9845
487.0971
518.4014
0.0 0.460892 0.187831
277.4258
284.0108
370.9029
377.8186
507.7089
530.9715
0.0 0.460892 0.250442
288.6936
308.3171
345.3442
353.6989
523.7203
536.3192
0.0 0.460892 -0.313052
312.5475
313.608
332.2621
332.2962
533.3049
533.8348
0.0 -0.576115 0.0
243.4451
314.5518
395.6094
415.4552
466.2543
499.2771
0.0 -0.576115 0.06261
249.0509
307.9662
393.3131
410.263
475.3958
506.1767
0.0 -0.576115 0.125221
264.3785
295.0324
386.1877
395.6866
495.5172
521.1405
0.0 -0.576115 0.187831
286.0169
287.0549
372.5579
373.8371
515.8124
534.5144
0.0 -0.576115 0.250442
292.3117
310.4049
342.8683
356.3361
530.8926
540.8739
0.0 -0.576115 -0.313052
311.7691
314.1349
334.5874
334.646
538.8734
539.9372
0.099786 0.172834 0.0
143.0862
170.056
288.6272
357.9577
395.5018
517.05
0.099786 0.172834 0.06261
153.6189
177.9221
300.6496
355.7841
390.5202
514.9081
0.099786 0.172834 0.125221
180.174
198.1314
328.2339
352.1246
375.7831
508.4348
0.099786 0.172834 0.187831
213.9623
224.3983
328.0037
352.3717
379.0732
497.0322
0.099786 0.172834 0.250442
249.0395
252.133
309.0556
322.8204
418.8063
479.1797
0.099786 0.172834 -0.313052
272.8523
273.8977
294.9341
295.6079
453.1569
453.2395
0.099786 0.288057 0.0
210.4997
235.2467
359.5376
411.9757
447.605
485.0456
0.099786 0.288057 0.06261
211.6417
241.9025
364.6395
413.337
436.4189
492.0947
0.099786 0.288057 0.125221
218.9183
258.6992
369.7191
407.096
429.0703
501.6547
0.099786 0.288057 0.187831
236.2792
280.4652
361.6094
380.4239
449.2196
505.6432
0.099786 0.288057 0.250442
262.8709
301.2576
339.3301
356.8217
472.4031
501.9887
0.099786 0.288057 -0.313052
292.9561
294.3259
336.2645
337.2638
490.4731
490.9994
0.099786 0.40328 0.0
267.9066
269.8608
392.6195
447.0197
448.252
484.8225
0.099786 0.40328 0.06261
261.6705
278.3496
393.1255
430.9368
459.2104
493.9493
0.099786 0.40328 0.125221
256.3153
293.4697
385.8474
413.3573
474.1559
509.4528
0.099786 0.40328 0.187831
258.2887
312.8943
363.8175
398.6295
492.9449
520.7806
0.099786 0.40328 0.250442
272.0248
322.9919
345.0283
381.9936
509.5428
524.6143
0.099786 0.40328 -0.313052
296.4604
296.8549
362.0077
362.3832
520.5392
520.6161
0.099786 0.518503 0.0
276.8304
311.2648
406.0912
414.8941
460.5776
499.1588
0.099786 0.518503 0.06261
278.5725
308.328
395.8143
418.387
469.7247
504.3464
0.099786 0.518503 0.125221
277.1446
311.1396
377.0739
416.8518
489.3315
516.7184
0.099786 0.518503 0.187831
272.9395
326.6125
353.2008
407.0014
509.2534
528.6722
0.099786 0.518503 0.250442
278.138
323.3842
349.0145
390.8134
524.2072
534.6052
0.099786 0.518503 -0.313052
295.6965
297.1464
370.4835
370.8242
532.4754
533.3042
0.199572 0.345669 0.0
261.4814
302.5085
381.9716
450.9051
458.9047
467.0883
0.199572 0.345669 0.06261
257.1259
307.1128
390.0825
427.596
467.6212
479.2711
0.199572 0.345669 0.125221
250.8975
319.1723
398.8746
403.9707
471.6121
498.18
0.199572 0.345669 0.187831
252.2587
331.634
371.9865
408.0313
482.8804
509.8838
0.199572 0.345669 0.250442
265.5501
319.2207
369.9901
400.1751
497.4042
513.2089
0.199572 0.345669 -0.313052
289.5868
290.4149
385.395
385.8725
508.5273
508.6076
0.199572 0.460892 0.0
305.936
337.0218
409.3924
413.9368
456.5571
496.1888
0.199572 0.460892 0.06261
297.1531
342.7155
398.7961
420.4948
467.667
497.0106
0.199572 0.460892 0.125221
282.1025
351.6814
379.3223
434.1542
483.8696
502.4491
0.199572 0.460892 0.187831
272.0299
338.8829
381.4989
437.9682
497.2934
512.3838
0.199572 0.460892 0.250442
273.0335
311.5651
398.4057
430.1771
509.3623
518.3244
0.199572 0.460892 -0.313052
286.8869
287.4109
415.7696
415.8892
516.9328
517.2285
0.199572 0.576115 0.0
329.6482
344.1082
391.9306
427.499
448.6378
505.1208
0.199572 0.576115 0.06261
316.7823
354.0667
379.3415
438.1737
457.6713
505.604
0.199572 0.576115 0.125221
297.7728
357.0844
369.4957
449.7729
477.5101
508.9619
0.199572 0.576115 0.187831
282.6952
332.0968
387.4882
449.4895
497.4276
515.8279
0.199572 0.576115 0.250442
277.6851
306.7404
406.4688
439.6152
511.9771
520.7321
0.199572 0.576115 -0.313052
285.8536
286.9949
424.3425
424.581
519.4304
520.051
0.299358 0.518503 0.0
339.4214
379.023
388.8884
421.773
442.9764
509.0119
0.299358 0.518503 0.06261
329.5391
366.1182
395.2426
433.1976
454.0584
506.9799
0.299358 0.518503 0.125221
310.3951
343.6919
407.1435
454.7588
474.7817
501.788
0.299358 0.518503 0.187831
292.6364
319.5778
422.7563
470.0015
492.6312
497.6987
0.299358 0.518503 0.250442
282.2385
297.7714
439.582
467.6854
501.7257
503.1091
0.299358 0.518503 -0.313052
283.6495
283.9571
455.2556
455.3773
505.6386
505.6805
P	=	1999.75	V	=	99.4725	E	=	-655.27809944
0.0 0.0 0.0
-0.0
-0.0
0.0
335.9052
335.9052
597.3712
0.0 0.0 0.062593
52.8232
52.8232
112.7791
332.2603
332.2603
591.17
0.0 0.0 0.125186
102.5335
102.5335
220.046
320.4833
320.4833
573.6238
0.0 0.0 0.18778
148.1575
148.1575
299.2135
299.2135
316.3971
546.5753
0.0 0.0 0.250373
190.844
190.844
268.7037
268.7037
397.4893
510.0937
0.0 0.0 -0.312966
231.5039
231.5039
231.5097
231.5097
461.5084
461.5978
0.0 0.115246 0.0
88.8403
104.4768
200.466
350.5493
374.5916
586.3916
0.0 0.115246 0.062593
114.744
117.7297
221.7857
347.2059
370.6085
581.186
0.0 0.115246 0.125186
148.2947
158.0926
278.1256
336.4909
358.1423
566.4147
0.0 0.115246 0.18778
184.2529
198.1367
317.2975
336.673
348.3507
543.3698
0.0 0.115246 0.250373
220.8856
235.7799
289.9578
307.3507
414.7788
511.7613
0.0 0.115246 -0.312966
256.7533
256.8399
272.4512
272.9696
469.4431
469.7125
0.0 0.230491 0.0
173.8356
188.6035
360.0166
381.2533
450.3789
556.2576
0.0 0.230491 0.062593
183.4572
196.9035
371.0023
378.4794
443.9278
555.4236
0.0 0.230491 0.125186
208.8992
218.2062
369.718
399.1075
425.8703
552.0139
0.0 0.230491 0.18778
243.2414
246.0264
354.2102
396.3027
437.5773
543.6932
0.0 0.230491 0.250373
275.8321
281.5447
332.197
361.8313
474.3478
528.278
0.0 0.230491 -0.312966
305.1731
305.3832
321.4114
323.2869
504.7396
505.7167
0.0 0.345737 0.0
239.7115
249.8223
407.6454
456.6853
511.1396
514.5693
0.0 0.345737 0.062593
246.4391
251.3603
405.2377
463.1977
487.81
535.8073
0.0 0.345737 0.125186
257.9505
264.3455
397.6607
450.4707
490.7539
552.9822
0.0 0.345737 0.18778
273.3201
288.7012
384.3075
416.0619
514.9948
562.0639
0.0 0.345737 0.250373
299.6245
315.3761
365.2604
376.7854
537.4333
562.016
0.0 0.345737 -0.312966
335.387
336.5762
341.566
341.7134
553.3108
553.8039
0.0 0.460983 0.0
259.7009
309.9297
422.1072
472.3351
498.3855
540.1498
0.0 0.460983 0.062593
265.7766
306.3907
419.7334
461.692
508.6721
548.9575
0.0 0.460983 0.125186
282.3113
299.9337
412.25
439.2823
530.0242
565.9405
0.0 0.460983 0.18778
299.0702
305.4316
399.0961
409.2144
552.5611
579.6013
0.0 0.460983 0.250373
311.2123
331.3435
373.2872
380.342
570.4041
585.0444
0.0 0.460983 -0.312966
337.2841
338.2478
357.0402
357.1821
581.3471
581.8344
0.0 -0.576229 0.0
263.224
337.4754
426.3345
450.198
508.4591
546.6687
0.0 -0.576229 0.062593
269.1563
331.1343
423.8916
444.7266
518.078
554.1031
0.0 -0.576229 0.125186
285.3563
318.4018
416.2346
429.0072
539.6774
570.3169
0.0 -0.576229 0.18778
308.236
310.3029
402.8171
403.6354
561.9885
584.7293
0.0 -0.576229 0.250373
315.8484
334.1617
370.9125
383.7317
579.0088
591.2469
0.0 -0.576229 -0.312966
337.0683
339.1804
360.0128
360.3128
588.5347
589.4772
0.099806 0.172869 0.0
151.5699
181.1616
311.2673
384.1683
424.7983
565.7722
0.099806 0.172869 0.062593
163.019
189.6403
324.1438
381.9661
419.4809
563.111
0.099806 0.172869 0.125186
191.8376
211.3572
352.4909
379.4997
403.6452
555.162
0.099806 0.172869 0.18778
228.3367
239.4779
350.8019
378.2847
410.1604
541.5022
0.099806 0.172869 0.250373
266.0659
269.1061
330.4872
346.1567
453.4207
520.7703
0.099806 0.172869 -0.312966
291.3295
292.3282
315.8524
316.5789
491.4019
491.4673
0.099806 0.288114 0.0
223.7535
251.4642
386.1774
445.9563
483.3617
529.4481
0.099806 0.288114 0.062593
225.2488
258.636
391.2996
447.579
471.9338
536.4928
0.099806 0.288114 0.125186
233.5692
276.7012
396.2658
439.6422
465.6562
546.3305
0.099806 0.288114 0.18778
252.5159
299.9926
387.8892
410.0109
487.3348
550.0688
0.099806 0.288114 0.250373
281.258
322.1114
364.8342
383.0235
512.3392
545.38
0.099806 0.288114 -0.312966
313.7942
315.0301
360.7748
361.7789
532.2884
532.767
0.099806 0.40336 0.0
287.7642
288.0755
422.2255
486.1787
487.1344
527.3235
0.099806 0.40336 0.062593
280.0116
298.6965
422.7193
467.7764
499.6248
537.5548
0.099806 0.40336 0.125186
274.7081
315.2431
415.541
447.3183
515.8407
554.8525
0.099806 0.40336 0.18778
277.1045
335.9774
392.6163
429.8595
536.1439
567.2687
0.099806 0.40336 0.250373
291.8898
346.7431
372.0111
411.1857
554.2437
571.181
0.099806 0.40336 -0.312966
318.4477
318.8056
389.4602
389.8549
566.4333
566.4955
0.099806 0.518606 0.0
298.6179
333.5807
437.6081
449.5543
501.7292
545.5094
0.099806 0.518606 0.062593
300.1061
331.4249
427.2283
452.652
511.4486
551.1938
0.099806 0.518606 0.125186
298.1717
335.7614
407.2
450.7341
532.61
564.7175
0.099806 0.518606 0.18778
293.8155
352.3396
381.3537
439.7618
554.5191
577.637
0.099806 0.518606 0.250373
299.2775
348.4403
376.5799
421.8451
571.3348
583.7135
0.099806 0.518606 -0.312966
318.4095
319.6625
399.7136
399.9141
580.9715
581.7179
0.199611 0.345737 0.0
278.7314
324.4596
410.937
490.5953
497.1463
507.7832
0.199611 0.345737 0.062593
274.4148
329.4185
419.4803
463.8485
508.5555
520.8123
0.199611 0.345737 0.125186
268.3005
342.2915
432.2435
434.0803
513.2936
541.9069
0.199611 0.345737 0.18778
270.0124
355.3682
402.663
438.3879
525.5353
554.769
0.199611 0.345737 0.250373
284.3734
342.6519
398.665
430.0728
541.0295
558.2353
0.199611 0.345737 -0.312966
310.6205
311.3393
414.4224
414.916
553.03
553.0833
0.199611 0.460983 0.0
327.2627
362.9548
441.7437
448.451
495.9937
540.36
0.199611 0.460983 0.062593
318.2532
369.0165
431.4308
454.2755
508.2789
541.3856
0.199611 0.460983 0.125186
302.6518
378.3379
410.7671
468.6091
526.487
547.5192
0.199611 0.460983 0.18778
291.9903
364.8381
412.3227
472.6173
541.5112
558.3393
0.199611 0.460983 0.250373
292.926
335.117
430.0431
464.1673
554.741
564.6837
0.199611 0.460983 -0.312966
308.0457
308.5269
448.6318
448.7132
563.0675
563.345
0.199611 0.576229 0.0
353.5221
371.3385
423.3692
461.7647
487.8988
550.5015
0.199611 0.576229 0.062593
340.0814
382.2483
409.4872
473.7225
497.5586
551.1702
0.199611 0.576229 0.125186
320.0442
385.1873
399.323
486.5988
519.1241
555.1432
0.199611 0.576229 0.18778
303.9232
357.8457
418.847
486.3043
541.1159
562.731
0.199611 0.576229 0.250373
298.2843
329.9401
439.3147
475.4218
557.4093
567.8478
0.199611 0.576229 -0.312966
307.1253
308.1466
458.7536
458.8934
566.0589
566.6289
0.299417 0.518606 0.0
364.1705
408.7111
420.3854
456.5611
480.496
553.3381
0.299417 0.518606 0.062593
353.8121
394.6081
427.5876
469.0537
492.7145
551.1308
0.299417 0.518606 0.125186
333.5568
370.3081
440.6351
492.7438
515.7987
545.5511
0.299417 0.518606 0.18778
314.4395
344.0172
457.5494
509.1764
535.7012
541.4548
0.299417 0.518606 0.250373
302.9421
319.9746
475.7875
506.4652
545.9599
547.3138
0.299417 0.518606 -0.312966
304.3784
304.6843
492.8944
492.9675
550.1345
550.1822
P	=	2500.38	V	=	95.09873	E	=	-655.21144064
0.0 0.0 0.0
-0.0
0.0
0.0
355.1261
355.1261
643.5543
0.0 0.0 0.062576
55.6027
55.6027
120.0638
351.2285
351.2285
636.5752
0.0 0.0 0.125152
108.1646
108.1646
234.5261
338.7285
338.7285
616.9202
0.0 0.0 0.187728
156.6748
156.6748
316.3282
316.3282
337.7222
586.9002
0.0 0.0 0.250304
202.1042
202.1042
284.2996
284.2996
424.9287
546.8742
0.0 0.0 -0.31288
245.1583
245.1583
245.1583
245.1583
494.124
494.124
0.0 0.115263 0.0
93.3642
109.8384
213.2946
370.661
396.4019
631.4088
0.0 0.115263 0.062576
120.8188
123.8168
236.1588
367.0977
392.1821
625.5612
0.0 0.115263 0.125152
156.2126
166.8093
296.4844
355.708
378.9831
608.9943
0.0 0.115263 0.187728
194.463
209.548
335.4008
356.1991
371.6609
583.3417
0.0 0.115263 0.250304
233.4534
249.6745
306.5372
325.0523
443.0247
548.5588
0.0 0.115263 -0.31288
271.5184
271.5184
288.5201
288.5201
502.4669
502.4669
0.0 0.230526 0.0
183.0367
198.7481
383.8044
403.5023
478.0897
598.091
0.0 0.230526 0.062576
193.3516
207.523
395.579
400.5482
471.4033
597.0067
0.0 0.230526 0.125152
220.6395
230.1266
391.1714
425.5001
452.6488
592.7489
0.0 0.230526 0.187728
257.6507
259.6564
374.5808
420.5906
466.8706
583.0593
0.0 0.230526 0.250304
291.2953
298.9234
351.0791
383.2585
505.9728
565.8036
0.0 0.230526 -0.31288
322.4956
322.4956
341.5793
341.5793
539.9217
539.9217
0.0 0.34579 0.0
253.7049
263.7516
432.2067
488.1182
545.5438
552.0267
0.0 0.34579 0.062576
260.8086
265.7589
429.606
494.796
521.84
573.9358
0.0 0.34579 0.125152
273.486
279.7255
421.4225
480.8269
525.0596
592.6133
0.0 0.34579 0.187728
290.3291
305.4633
407.0453
443.6399
550.6335
602.2759
0.0 0.34579 0.250304
318.5811
333.6877
386.6303
400.8371
574.4044
601.8079
0.0 0.34579 -0.31288
357.091
357.091
361.4996
361.4996
592.0368
592.0368
0.0 0.461053 0.0
276.3859
328.1522
448.2925
505.3922
534.048
579.9244
0.0 0.461053 0.062576
282.7111
325.0927
445.705
493.8471
545.1427
589.4806
0.0 0.461053 0.125152
299.9534
319.4479
437.6296
469.6232
567.9678
607.9643
0.0 0.461053 0.187728
318.9827
324.2212
423.55
437.2082
592.1075
622.5064
0.0 0.461053 0.250304
331.5657
351.5897
398.4779
403.5784
611.4238
627.7781
0.0 0.461053 -0.31288
360.0
360.0
378.9033
378.9033
623.6453
623.6453
0.0 -0.576316 0.0
280.9384
357.8893
453.0814
480.9713
545.494
588.4962
0.0 -0.576316 0.062576
287.0165
351.8564
450.4371
475.2953
555.67
596.4584
0.0 -0.576316 0.125152
303.7588
339.5611
442.21
458.6887
578.7394
613.7983
0.0 -0.576316 0.187728
327.6985
331.5464
427.9135
431.44
602.7809
628.9992
0.0 -0.576316 0.250304
337.301
355.0908
396.0828
407.666
621.3065
635.4593
0.0 -0.576316 -0.31288
360.8562
360.8562
382.6701
382.6701
632.4696
632.4696
0.099821 0.172895 0.0
159.4742
190.8105
331.0442
407.1645
450.341
608.6082
0.099821 0.172895 0.062576
171.7854
199.8273
344.681
404.982
444.7417
605.5629
0.099821 0.172895 0.125152
202.6194
222.8852
373.6694
403.7542
428.0003
596.4667
0.099821 0.172895 0.187728
241.4232
252.691
370.9061
401.0483
437.6644
580.933
0.099821 0.172895 0.250304
281.4433
283.998
349.4316
366.797
484.1274
557.6951
0.099821 0.172895 -0.31288
308.2052
308.2052
334.8177
334.8177
525.3807
525.3807
0.099821 0.288158 0.0
235.8977
265.5386
409.442
475.7623
514.5735
568.4587
0.099821 0.288158 0.062576
237.7406
273.1517
414.641
477.597
503.0454
575.5998
0.099821 0.288158 0.125152
247.0101
292.3353
419.5601
468.3125
497.8631
585.7525
0.099821 0.288158 0.187728
267.3298
317.0677
410.9075
436.1654
520.8468
589.3373
0.099821 0.288158 0.250304
297.8765
340.5121
387.4638
405.7258
547.2948
583.7704
0.099821 0.288158 -0.31288
332.8284
332.8284
382.7881
382.7881
569.2661
569.2661
0.099821 0.403421 0.0
304.5038
305.167
448.0652
520.6511
521.2109
564.6345
0.099821 0.403421 0.062576
296.527
316.6504
448.5157
500.2377
535.1889
575.8772
0.099821 0.403421 0.125152
291.4759
334.3586
441.352
477.4267
552.5742
594.8673
0.099821 0.403421 0.187728
294.249
356.2296
418.0092
457.3747
574.1418
608.231
0.099821 0.403421 0.250304
309.7682
367.7589
396.0861
436.6574
593.4583
612.0681
0.099821 0.403421 -0.31288
338.3244
338.3244
413.7486
413.7486
606.6657
606.6657
0.099821 0.518684 0.0
317.9249
353.4863
465.0288
480.2151
537.8666
586.3111
0.099821 0.518684 0.062576
319.1239
352.1506
454.624
482.8124
548.2004
592.4708
0.099821 0.518684 0.125152
316.9539
357.7494
433.5836
480.3793
570.811
607.0759
0.099821 0.518684 0.187728
312.7257
375.082
406.3008
468.4143
594.396
620.766
0.099821 0.518684 0.250304
318.3756
370.9166
401.0103
449.0633
612.7495
626.7709
0.099821 0.518684 -0.31288
339.4933
339.4933
425.4984
425.4984
623.8051
623.8051
0.199642 0.34579 0.0
294.3278
343.4651
436.2917
525.509
530.5913
543.4939
0.199642 0.34579 0.062576
290.0368
348.7589
445.2153
495.7601
544.5088
557.2525
0.199642 0.34579 0.125152
284.0178
362.3621
460.4294
461.8643
549.9378
580.2892
0.199642 0.34579 0.187728
286.0442
375.9877
430.0817
464.9124
563.0182
594.1814
0.199642 0.34579 0.250304
301.3613
363.4145
423.9568
456.1382
579.3188
597.749
0.199642 0.34579 -0.31288
329.8363
329.8363
440.0052
440.0052
592.0803
592.0803
0.199642 0.461053 0.0
346.3369
385.6215
469.9825
478.9213
530.6004
579.0756
0.199642 0.461053 0.062576
337.1731
391.9793
460.1507
483.8801
543.8956
580.3006
0.199642 0.461053 0.125152
321.185
401.5637
438.6383
498.6184
563.8653
587.0854
0.199642 0.461053 0.187728
310.0845
387.8301
439.503
502.7849
580.2893
598.673
0.199642 0.461053 0.250304
310.978
356.4762
457.8071
493.8136
594.5843
605.2959
0.199642 0.461053 -0.31288
327.588
327.588
477.3969
477.3969
603.6551
603.6551
0.199642 0.576316 0.0
374.7517
395.3001
451.2266
491.5563
522.4427
590.2479
0.199642 0.576316 0.062576
360.7641
407.0306
436.179
504.63
532.6253
591.1047
0.199642 0.576316 0.125152
339.9088
410.1449
425.4354
518.5756
555.6451
595.6592
0.199642 0.576316 0.187728
323.1011
380.9187
446.2587
518.3397
579.4171
603.8819
0.199642 0.576316 0.250304
317.1774
351.0359
468.0788
506.717
597.2358
609.1691
0.199642 0.576316 -0.31288
327.1522
327.1522
488.94
488.94
607.2055
607.2055
0.299463 0.518684 0.0
386.1807
435.0096
448.0545
487.0134
513.3689
591.9907
0.299463 0.518684 0.062576
375.4104
419.8151
456.0062
500.3675
526.4996
589.6297
0.299463 0.518684 0.125152
354.2355
393.9614
469.9146
525.8111
551.5739
583.7415
0.299463 0.518684 0.187728
334.1361
366.0086
487.8777
543.2869
573.3197
579.7213
0.299463 0.518684 0.250304
321.9999
340.3404
507.3831
540.3282
584.7334
586.0423
0.299463 0.518684 -0.31288
323.7746
323.7746
525.8084
525.8084
589.2102
589.2102
P	=	2999.97	V	=	91.46165	E	=	-655.14361154
0.0 0.0 0.0
0.0
0.0
0.0
371.7991
371.7991
684.0189
0.0 0.0 0.062559
58.2724
58.2724
126.5179
367.7421
367.7421
676.3403
0.0 0.0 0.125118
113.2211
113.2211
247.2648
354.6699
354.6699
654.7749
0.0 0.0 0.187677
163.7939
163.7939
331.1291
331.1291
356.3329
622.0432
0.0 0.0 0.250236
211.1709
211.1709
297.4014
297.4014
448.739
578.8057
0.0 0.0 -0.312795
256.248
256.248
256.248
256.248
522.3408
522.3408
0.0 0.115273 0.0
97.4384
114.4669
224.7766
388.1448
415.4378
670.8679
0.0 0.115273 0.062559
126.3987
129.1983
248.9242
384.4202
411.0379
664.4397
0.0 0.115273 0.125118
163.1911
174.6856
312.6157
372.4673
397.2049
646.253
0.0 0.115273 0.187677
203.155
219.2995
351.0695
373.1678
392.0936
618.2152
0.0 0.115273 0.250236
243.8679
261.1201
320.6189
340.2791
467.7177
580.511
0.0 0.115273 -0.312795
283.7569
283.7569
301.7942
301.7942
531.0315
531.0315
0.0 0.230546 0.0
191.1138
207.502
404.9515
422.9036
502.4754
634.7426
0.0 0.230546 0.062559
202.1577
216.7534
417.3306
419.7857
495.5146
633.4443
0.0 0.230546 0.125118
231.0815
240.5023
409.8634
448.6028
476.0679
628.4828
0.0 0.230546 0.187677
269.9204
271.4039
392.2721
441.7277
492.6719
617.4966
0.0 0.230546 0.250236
304.4822
313.1337
367.375
402.1664
534.0058
598.3787
0.0 0.230546 -0.312795
337.218
337.218
358.0289
358.0289
570.2785
570.2785
0.0 0.345819 0.0
265.7529
275.6359
453.6461
515.879
575.8593
584.6989
0.0 0.345819 0.062559
273.2247
278.0789
450.8894
522.5528
551.5479
607.4555
0.0 0.345819 0.125118
286.7533
293.0616
442.1922
507.0846
555.1577
627.4315
0.0 0.345819 0.187677
304.6593
319.9588
426.8861
467.4688
581.9079
637.5225
0.0 0.345819 0.250236
334.3518
349.4481
405.1926
421.7401
606.9565
636.5872
0.0 0.345819 -0.312795
375.1041
375.1041
378.6362
378.6362
625.8023
625.8023
0.0 0.461092 0.0
290.6927
343.3846
471.146
534.0053
565.5428
614.7081
0.0 0.461092 0.062559
297.3031
340.6659
468.4247
521.6731
577.2009
624.9437
0.0 0.461092 0.125118
315.2784
335.6259
459.8895
495.7922
601.1939
644.6981
0.0 0.461092 0.187677
335.6005
340.5237
444.9395
461.161
626.6608
660.0356
0.0 0.461092 0.250236
348.84
369.039
419.7917
423.7341
647.201
665.2637
0.0 0.461092 -0.312795
378.8468
378.8468
397.6696
397.6696
660.4461
660.4461
0.0 -0.576365 0.0
296.0924
374.8172
476.4217
507.5201
578.2526
624.8889
0.0 -0.576365 0.062559
302.4177
369.0843
473.6571
501.5466
588.7938
633.361
0.0 -0.576365 0.125118
319.8055
357.2168
465.0012
483.9743
612.9265
651.753
0.0 -0.576365 0.187677
344.6369
349.3374
449.8623
455.0013
638.3556
667.6801
0.0 -0.576365 0.250236
355.3501
373.1259
417.3777
428.3924
658.1945
674.1072
0.0 -0.576365 -0.312795
380.0578
380.0578
402.0081
402.0081
670.4325
670.4325
0.099829 0.17291 0.0
166.4793
199.2058
348.5046
427.4035
472.7335
646.1547
0.099829 0.17291 0.062559
179.5565
208.7137
362.7354
425.2774
466.8767
642.7689
0.099829 0.17291 0.125118
212.0694
232.9315
392.0301
425.2921
449.2905
632.6463
0.099829 0.17291 0.187677
252.676
264.0891
388.3444
420.8272
461.8458
615.4236
0.099829 0.17291 0.250236
294.4435
296.7621
365.7451
384.5666
510.992
589.941
0.099829 0.17291 -0.312795
322.0964
322.0964
350.7541
350.7541
555.0143
555.0143
0.099829 0.288183 0.0
246.4119
277.7658
429.7116
502.1427
542.0834
602.5684
0.099829 0.288183 0.062559
248.5566
285.8083
434.9635
504.0581
530.3525
609.9031
0.099829 0.288183 0.125118
258.5822
305.9863
439.8679
493.1862
526.2101
620.398
0.099829 0.288183 0.187677
279.9295
331.8276
430.895
458.8788
550.3196
623.7795
0.099829 0.288183 0.250236
311.8923
356.1962
406.8243
425.7998
578.1019
617.3067
0.099829 0.288183 -0.312795
348.4908
348.4908
401.4475
401.4475
601.4828
601.4828
0.099829 0.403456 0.0
318.4297
320.2099
470.6204
550.5986
551.2437
597.4126
0.099829 0.403456 0.062559
310.5107
332.1788
471.0569
528.4554
566.3972
609.5508
0.099829 0.403456 0.125118
305.5905
350.9472
463.8346
503.5766
584.7838
629.9813
0.099829 0.403456 0.187677
308.6929
373.7362
439.8714
481.39
607.4241
644.1444
0.099829 0.403456 0.250236
324.9387
385.6281
416.7424
458.9476
627.7738
647.923
0.099829 0.403456 -0.312795
354.978
354.978
434.6591
434.6591
641.8829
641.8829
0.099829 0.518729 0.0
334.5535
370.1476
488.9686
506.6906
569.7687
621.8915
0.099829 0.518729 0.062559
335.4762
369.577
478.357
509.0849
580.5434
628.5035
0.099829 0.518729 0.125118
332.9084
376.536
456.3535
506.2854
604.2978
644.075
0.099829 0.518729 0.187677
328.6642
394.715
427.631
493.4209
629.2571
658.4676
0.099829 0.518729 0.250236
334.5493
389.8478
422.0807
472.7234
648.858
664.4774
0.099829 0.518729 -0.312795
356.6877
356.6877
447.7235
447.7235
660.9028
660.9028
0.199659 0.345819 0.0
307.6875
360.0276
458.3698
555.8945
559.9918
574.9839
0.199659 0.345819 0.062559
303.433
365.5997
467.6549
523.4462
576.1844
589.3076
0.199659 0.345819 0.125118
297.4966
379.8096
483.4773
487.3899
582.1384
614.089
0.199659 0.345819 0.187677
299.7184
393.8348
453.6246
488.1483
595.8752
628.8432
0.199659 0.345819 0.250236
315.7307
381.0266
445.9477
478.9501
612.8436
632.4169
0.199659 0.345819 -0.312795
345.7405
345.7405
462.1286
462.1286
626.2567
626.2567
0.199659 0.461092 0.0
362.5616
405.3263
494.6177
505.2761
561.0216
612.9918
0.199659 0.461092 0.062559
353.2364
411.9626
484.9146
509.8198
575.2118
614.4137
0.199659 0.461092 0.125118
336.8901
421.7355
462.6821
525.0051
596.6896
621.8027
0.199659 0.461092 0.187677
325.4049
407.4137
463.1622
529.291
614.2615
634.0591
0.199659 0.461092 0.250236
326.259
374.3607
481.9757
519.7824
629.3607
640.9031
0.199659 0.461092 -0.312795
343.7402
343.7402
502.4585
502.4585
638.9989
638.9989
0.199659 0.576365 0.0
392.7552
416.1056
475.2616
517.5605
552.8235
624.9596
0.199659 0.576365 0.062559
378.3738
428.5675
459.1053
531.7244
563.4763
626.0081
0.199659 0.576365 0.125118
356.8463
431.4512
448.2449
546.6985
587.7596
631.1178
0.199659 0.576365 0.187677
339.3744
400.4672
470.2235
546.4658
613.0139
639.8942
0.199659 0.576365 0.250236
333.0321
368.7355
493.1587
534.0707
632.0565
645.2732
0.199659 0.576365 -0.312795
343.4333
343.4333
515.178
515.178
642.8752
642.8752
0.299488 0.518729 0.0
405.0204
457.6641
472.1952
513.6132
542.1568
625.7879
0.299488 0.518729 0.062559
393.8894
441.4752
480.8445
527.8145
556.1836
623.3264
0.299488 0.518729 0.125118
371.9212
414.181
495.5984
554.8988
583.0956
617.2208
0.299488 0.518729 0.187677
350.8831
384.6567
514.4817
573.2582
606.3917
613.2481
0.299488 0.518729 0.250236
337.9885
357.4025
535.0212
569.9703
618.612
619.927
0.299488 0.518729 -0.312795
339.7886
339.7886
554.5273
554.5273
623.2845
623.2845
P	=	3200.08	V	=	90.15977	E	=	-655.11618147
0.0 0.0 0.0
0.0
0.0
0.0
377.9395
377.9395
699.2762
0.0 0.0 0.062553
59.2984
59.2984
128.85
373.8284
373.8284
691.3348
0.0 0.0 0.125107
115.1586
115.1586
251.9316
360.5583
360.5583
669.0599
0.0 0.0 0.18766
166.5063
166.5063
336.6152
336.6152
363.2606
635.334
0.0 0.0 0.250213
214.5983
214.5983
302.2815
302.2815
457.7127
590.9136
0.0 0.0 -0.312767
260.4062
260.4062
260.4062
260.4062
533.0388
533.0388
0.0 0.115278 0.0
98.9873
116.2015
229.0314
394.588
422.4409
685.7442
0.0 0.115278 0.062553
128.3963
131.2276
253.7119
390.807
417.9966
679.0939
0.0 0.115278 0.125107
165.8375
177.5674
318.6735
378.6555
403.9752
660.3011
0.0 0.115278 0.18766
206.4477
222.9775
356.8705
379.5079
399.7727
631.3943
0.0 0.115278 0.250213
247.7913
265.4523
325.8547
345.9876
477.0567
592.6282
0.0 0.115278 -0.312767
288.335
288.335
306.7904
306.7904
541.8765
541.8765
0.0 0.230556 0.0
194.1699
210.7597
412.7679
430.0632
511.4646
648.5772
0.0 0.230556 0.062553
205.4097
220.1972
425.4421
426.8876
504.4509
647.1804
0.0 0.230556 0.125107
234.9164
244.3886
416.7716
457.3028
484.8487
641.9371
0.0 0.230556 0.18766
274.5472
275.8083
398.8228
449.7087
502.4181
630.4829
0.0 0.230556 0.250213
309.4153
318.5735
373.4258
409.3427
544.6006
610.6948
0.0 0.230556 -0.312767
342.7046
342.7046
364.3112
364.3112
581.7635
581.7635
0.0 0.345834 0.0
270.2079
280.1372
461.5584
526.1461
587.0558
597.0925
0.0 0.345834 0.062553
277.8251
282.6927
458.7499
532.9022
562.6434
620.0445
0.0 0.345834 0.125107
291.6916
298.0197
449.8762
516.9937
566.4367
640.5066
0.0 0.345834 0.18766
310.0822
325.3558
434.2394
476.516
593.6702
650.7696
0.0 0.345834 0.250213
340.4226
355.3118
412.0813
429.7396
619.192
649.66
0.0 0.345834 -0.312767
382.0502
382.0502
385.0034
385.0034
638.4886
638.4886
0.0 0.461111 0.0
295.9658
349.1943
479.565
544.9355
577.2652
627.5108
0.0 0.461111 0.062553
302.6966
346.57
476.802
532.2481
589.1572
638.0886
0.0 0.461111 0.125107
320.9704
341.7283
468.1133
505.6996
613.6227
658.4193
0.0 0.461111 0.18766
341.9081
346.5895
452.8545
470.2476
639.5982
674.0931
0.0 0.461111 0.250213
355.4614
375.5216
427.9277
431.1989
660.589
679.3037
0.0 0.461111 -0.312767
386.0838
386.0838
404.6273
404.6273
674.2175
674.2175
0.0 -0.576389 0.0
301.6727
381.3026
485.0098
517.6942
590.4904
638.251
0.0 -0.576389 0.062553
308.1088
375.6588
482.2086
511.5476
601.1808
646.9889
0.0 -0.576389 0.125107
325.7704
363.9266
473.4104
493.5385
625.7198
665.8875
0.0 -0.576389 0.18766
350.9461
356.1117
457.9724
463.9119
651.6574
682.1428
0.0 -0.576389 0.250213
362.2534
379.8277
425.4727
436.0575
671.9764
688.5643
0.0 -0.576389 -0.312767
387.3988
387.3988
409.1716
409.1716
684.6208
684.6208
0.099834 0.172917 0.0
169.1291
202.316
354.9566
434.8878
480.9809
660.3185
0.099834 0.172917 0.062553
182.4054
212.0243
369.4591
432.8015
475.0692
656.7922
0.099834 0.172917 0.125107
215.5211
236.7044
398.8602
433.3745
457.2497
646.2735
0.099834 0.172917 0.18766
256.9102
268.3772
394.8095
428.28
470.9748
628.4399
0.099834 0.172917 0.250213
299.3992
301.547
371.8126
391.2932
521.155
602.1504
0.099834 0.172917 -0.312767
327.3142
327.3142
356.7768
356.7768
566.2471
566.2471
0.099834 0.288195 0.0
250.3767
282.2669
437.1896
511.9109
552.2612
615.4805
0.099834 0.288195 0.062553
252.572
290.488
442.494
513.8978
540.5232
622.8423
0.099834 0.288195 0.125107
262.85
311.067
447.417
502.5569
536.8283
633.4317
0.099834 0.288195 0.18766
284.6784
337.3379
438.3447
467.4909
561.4093
636.7429
0.099834 0.288195 0.250213
317.2726
362.0572
414.1461
433.3727
589.6988
629.9403
0.099834 0.288195 -0.312767
354.4716
354.4716
408.4714
408.4714
613.6163
613.6163
0.099834 0.403473 0.0
323.7049
325.7483
478.9514
562.0124
562.4094
609.5262
0.099834 0.403473 0.062553
315.7303
337.9479
479.4051
539.1366
578.0374
622.0945
0.099834 0.403473 0.125107
310.8473
357.1182
472.2105
513.4646
596.8211
643.1324
0.099834 0.403473 0.18766
314.1354
380.2588
448.1209
490.418
619.8915
657.6133
0.099834 0.403473 0.250213
330.7443
392.3493
424.5671
467.2918
640.6297
661.3664
0.099834 0.403473 -0.312767
361.3638
361.3638
442.4918
442.4918
655.0779
655.0779
0.099834 0.51875 0.0
340.6882
376.5072
497.8089
516.8373
581.691
635.0027
0.099834 0.51875 0.062553
341.5291
376.1902
487.2062
519.0318
592.6404
641.8364
0.099834 0.51875 0.125107
338.8697
383.6016
464.8972
515.9933
616.828
657.8561
0.099834 0.51875 0.18766
334.6734
402.0739
435.686
502.7508
642.2952
672.5568
0.099834 0.51875 0.250213
340.7066
397.0254
429.9842
481.5435
662.3543
678.5769
0.099834 0.51875 -0.312767
363.2514
363.2514
456.0228
456.0228
674.7695
674.7695
0.199667 0.345834 0.0
312.7206
366.0979
466.5501
567.4669
570.9346
586.6566
0.199667 0.345834 0.062553
308.4322
371.7935
476.0071
533.9042
587.9438
601.3581
0.199667 0.345834 0.125107
302.4975
386.2654
492.0947
497.0779
594.1347
626.7864
0.199667 0.345834 0.18766
304.8684
400.4722
462.6087
496.8345
608.156
641.8593
0.199667 0.345834 0.250213
321.2515
387.715
454.2584
487.4721
625.3965
645.4281
0.199667 0.345834 -0.312767
351.8741
351.8741
470.4117
470.4117
639.0699
639.0699
0.199667 0.461111 0.0
368.7145
412.5997
503.7634
515.3773
572.3947
625.5773
0.199667 0.461111 0.062553
359.2862
419.3575
494.2925
519.5684
586.9426
627.0799
0.199667 0.461111 0.125107
342.7763
429.2314
471.8169
534.887
608.9585
634.7372
0.199667 0.461111 0.18766
331.1878
414.8106
472.0745
539.1899
626.9412
647.2861
0.199667 0.461111 0.250213
332.1078
381.2053
491.0296
529.4652
642.3535
654.2222
0.199667 0.461111 -0.312767
349.9615
349.9615
511.8152
511.8152
652.2153
652.2153
0.199667 0.576389 0.0
399.6217
423.8232
484.4907
527.2138
564.2041
637.8423
0.199667 0.576389 0.062553
385.0308
436.6098
467.8325
541.8525
575.0333
638.9605
0.199667 0.576389 0.125107
363.2287
439.5275
456.782
557.2075
599.783
644.2919
0.199667 0.576389 0.18766
345.5351
407.8965
479.1966
556.9378
625.5823
653.3098
0.199667 0.576389 0.250213
339.0948
375.5096
502.5354
544.2465
645.0762
658.7499
0.199667 0.576389 -0.312767
349.6918
349.6918
524.9598
524.9598
656.2047
656.2047
0.299501 0.51875 0.0
412.21
466.3619
481.181
523.5362
552.9135
638.3886
0.299501 0.51875 0.062553
400.9109
449.7253
490.1332
538.0731
567.2924
635.8653
0.299501 0.51875 0.125107
378.6133
421.8618
505.2015
565.783
594.9007
629.6339
0.299501 0.51875 0.18766
357.2422
391.7636
524.424
584.442
618.7754
625.6893
0.299501 0.51875 0.250213
344.1199
363.9565
545.3347
580.9845
631.2558
632.6131
0.299501 0.51875 -0.312767
345.9669
345.9669
565.2141
565.2141
636.0335
636.0335
P	=	3400.02	V	=	88.93348	E	=	-655.08867627
0.0 0.0 0.0
0.0
0.0
0.0
383.7593
383.7593
714.003
0.0 0.0 0.062548
60.2507
60.2507
131.1083
379.5829
379.5829
705.8149
0.0 0.0 0.125096
116.9513
116.9513
256.4659
366.0904
366.0904
682.8768
0.0 0.0 0.187644
169.0057
169.0057
341.7279
341.7279
370.0146
648.2261
0.0 0.0 0.250192
217.7484
217.7484
306.7952
306.7952
466.477
602.6994
0.0 0.0 -0.312739
264.2325
264.2325
264.2325
264.2325
543.4805
543.4805
0.0 0.115281 0.0
100.5317
117.7965
233.1221
400.7214
429.0976
700.1118
0.0 0.115281 0.062548
130.407
133.0992
258.3205
396.8751
424.608
693.2641
0.0 0.115281 0.125096
168.2832
180.4218
324.5369
384.5046
410.3935
673.925
0.0 0.115281 0.187644
209.4888
226.522
362.3152
385.4842
407.241
644.2141
0.0 0.115281 0.250192
251.4146
269.5353
330.7329
351.3328
486.1535
604.4355
0.0 0.115281 -0.312739
292.5754
292.5754
311.4559
311.4559
552.4469
552.4469
0.0 0.230563 0.0
197.1738
213.7894
420.2898
436.9077
520.0416
661.9461
0.0 0.230563 0.062548
208.6614
223.4015
433.2566
433.6676
512.988
660.4872
0.0 0.230563 0.125096
238.7803
248.007
423.3419
465.6651
493.2928
655.0304
0.0 0.230563 0.187644
279.1015
279.911
405.0195
457.2906
511.8875
643.1445
0.0 0.230563 0.250192
314.0161
323.781
379.1161
416.1369
554.8754
622.6804
0.0 0.230563 -0.312739
347.8381
347.8381
370.2499
370.2499
592.9089
592.9089
0.0 0.345844 0.0
274.3497
284.4827
469.1354
535.9558
597.8352
609.0472
0.0 0.345844 0.062548
282.1017
287.1931
466.2674
542.7267
573.4167
632.1921
0.0 0.345844 0.125096
296.5561
302.6338
457.2009
526.4274
577.3891
653.1452
0.0 0.345844 0.187644
315.3655
330.3959
441.2222
485.1597
605.0521
663.5808
0.0 0.345844 0.250192
346.2255
360.8148
418.5996
437.3538
631.0131
662.2903
0.0 0.345844 -0.312739
388.6386
388.6386
391.006
391.006
650.7367
650.7367
0.0 0.461125 0.0
300.8006
354.7219
487.6602
555.4368
588.3366
639.9787
0.0 0.461125 0.062548
307.6388
352.2013
484.8463
542.3987
600.4942
650.8324
0.0 0.461125 0.125096
326.1963
347.5543
475.9872
515.2149
625.4379
671.6603
0.0 0.461125 0.187644
347.9042
352.2073
460.4125
478.9597
651.941
687.6388
0.0 0.461125 0.250192
361.7327
381.6009
435.6936
438.3083
673.4214
692.8274
0.0 0.461125 -0.312739
392.9532
392.9532
411.2187
411.2187
687.4641
687.4641
0.0 -0.576407 0.0
306.7451
387.4367
493.2901
527.4512
601.992
651.324
0.0 -0.576407 0.062548
313.277
381.8685
490.4425
521.1628
612.8129
660.2616
0.0 -0.576407 0.125096
331.1997
370.236
481.4852
502.75
637.7442
679.5641
0.0 -0.576407 0.187644
356.754
362.4618
465.7424
472.476
664.2336
696.0959
0.0 -0.576407 0.250192
368.7502
386.1012
433.2174
443.382
685.1208
702.4952
0.0 -0.576407 -0.312739
394.3693
394.3693
415.97
415.97
698.2489
698.2489
0.099837 0.172922 0.0
171.7497
205.2741
361.0815
442.1194
488.8091
674.0061
0.099837 0.172922 0.062548
185.2677
215.1681
375.8458
440.0805
482.8506
670.3739
0.099837 0.172922 0.125096
218.9896
240.2728
405.3075
441.2521
464.8124
659.53
0.099837 0.172922 0.187644
261.0408
272.4133
400.9243
435.3411
479.848
641.1344
0.099837 0.172922 0.250192
304.087
306.0326
377.5451
397.6288
531.0233
614.0468
0.099837 0.172922 -0.312739
332.1795
332.1795
362.4608
362.4608
577.1655
577.1655
0.099837 0.288203 0.0
254.2466
286.5897
444.2289
521.3622
561.9806
627.9518
0.099837 0.288203 0.062548
256.5312
294.9852
449.5889
523.3635
550.3073
635.3612
0.099837 0.288203 0.125096
267.0827
315.9478
454.5498
511.4364
547.1992
646.0776
0.099837 0.288203 0.187644
289.2923
342.6175
445.388
475.6739
572.1924
649.3288
0.099837 0.288203 0.250192
322.3612
367.6458
421.0341
440.5758
600.9375
642.1847
0.099837 0.288203 -0.312739
360.0845
360.0845
415.1367
415.1367
625.36
625.36
0.099837 0.403485 0.0
328.7821
330.9888
486.8819
572.9947
573.006
621.2868
0.099837 0.403485 0.062548
320.7275
343.4576
487.3515
549.3079
589.2506
634.2083
0.099837 0.403485 0.125096
315.8946
363.0178
480.1676
522.9003
608.4228
655.8007
0.099837 0.403485 0.187644
319.3232
386.5098
455.9114
499.0477
631.904
670.5885
0.099837 0.403485 0.250192
336.2159
398.7829
431.9313
475.2623
653.0207
674.3221
0.099837 0.403485 -0.312739
367.3747
367.3747
449.9535
449.9535
667.7974
667.7974
0.099837 0.518766 0.0
346.3944
382.5701
506.2998
526.5849
592.893
647.8208
0.099837 0.518766 0.062548
347.1666
382.4708
495.6933
528.594
604.0153
654.8204
0.099837 0.518766 0.125096
344.451
390.2529
473.0715
525.3256
628.638
671.1952
0.099837 0.518766 0.187644
340.2978
409.0202
443.3459
511.7143
654.6544
686.1564
0.099837 0.518766 0.250192
346.4763
403.8514
437.4622
490.005
675.2485
692.1718
0.099837 0.518766 -0.312739
369.4398
369.4398
463.9502
463.9502
688.1014
688.1014
0.199673 0.345844 0.0
317.6098
372.0381
474.1703
578.6295
581.2359
598.0888
0.199673 0.345844 0.062548
313.3066
377.8496
483.8024
543.8525
599.4554
612.8791
0.199673 0.345844 0.125096
307.3777
392.5701
500.1789
506.2603
605.8554
638.9666
0.199673 0.345844 0.187644
309.8243
406.9431
471.0697
505.0392
620.109
654.3766
0.199673 0.345844 0.250192
326.4616
394.087
462.1475
495.568
637.5631
657.9644
0.199673 0.345844 -0.312739
357.6316
357.6316
478.305
478.305
651.4452
651.4452
0.199673 0.461125 0.0
374.661
419.5771
512.4095
525.1095
583.1035
637.8806
0.199673 0.461125 0.062548
365.1165
426.4682
503.2367
528.813
598.0516
639.434
0.199673 0.461125 0.125096
348.4146
436.4931
480.4292
544.254
620.6725
647.2593
0.199673 0.461125 0.187644
336.6778
421.9116
480.4882
548.6215
639.1166
660.0239
0.199673 0.461125 0.250192
337.6153
387.6847
499.6518
538.7251
654.8617
667.0502
0.199673 0.461125 -0.312739
355.8109
355.8109
520.7642
520.7642
664.9523
664.9523
0.199673 0.576407 0.0
406.2348
431.1247
493.3865
536.47
574.882
650.429
0.199673 0.576407 0.062548
391.4087
444.2165
476.2282
551.566
585.8799
651.5905
0.199673 0.576407 0.125096
369.2947
447.2616
464.8328
567.2944
611.0976
657.0799
0.199673 0.576407 0.187644
351.3427
414.9655
487.6754
567.0053
637.4889
666.2892
0.199673 0.576407 0.250192
344.791
381.916
511.4573
554.029
657.5188
671.7678
0.199673 0.576407 -0.312739
355.5836
355.5836
534.3318
534.3318
669.0353
669.0353
0.29951 0.518766 0.0
419.1728
474.7643
489.7095
532.9541
563.1255
650.6708
0.29951 0.518766 0.062548
407.6783
457.6739
498.9065
547.822
577.863
648.0755
0.29951 0.518766 0.125096
385.0039
429.2114
514.2232
576.1494
606.1647
641.694
0.29951 0.518766 0.187644
363.2646
398.5083
533.7839
595.1469
630.6352
637.732
0.29951 0.518766 0.250192
349.9009
370.1415
555.1251
591.5687
643.4589
644.8156
0.29951 0.518766 -0.312739
351.7866
351.7866
575.446
575.446
648.33
648.33
P	=	3600.29	V	=	87.77328	E	=	-655.06107454
0.0 0.0 0.0
-0.0
-0.0
0.0
389.5249
389.5249
728.2644
0.0 0.0 0.062541
61.1208
61.1208
133.3512
385.2818
385.2818
719.8404
0.0 0.0 0.125081
118.6448
118.6448
260.8938
371.5753
371.5753
696.2477
0.0 0.0 0.187622
171.4653
171.4653
346.8302
346.8302
376.4929
660.6414
0.0 0.0 0.250163
220.9392
220.9392
311.3534
311.3534
474.7922
613.953
0.0 0.0 -0.312703
268.1331
268.1331
268.1331
268.1331
553.3807
553.3807
0.0 0.115287 0.0
102.0121
119.3896
237.3481
406.7605
435.7539
714.0221
0.0 0.115287 0.062541
132.3627
134.9217
262.9524
402.8488
431.1837
706.9785
0.0 0.115287 0.125081
170.6317
183.0944
330.2978
390.2706
416.7197
687.0855
0.0 0.115287 0.187622
212.4598
229.8342
367.7147
391.3704
414.4885
656.5427
0.0 0.115287 0.250163
255.0339
273.4921
335.6178
356.64
494.884
615.7298
0.0 0.115287 -0.312703
296.8463
296.8463
316.0917
316.0917
562.5396
562.5396
0.0 0.230575 0.0
200.0635
216.8191
428.0046
443.6145
528.669
674.8774
0.0 0.230575 0.062541
211.8029
226.5744
440.3095
441.1271
521.5003
673.3417
0.0 0.230575 0.125081
242.4561
251.5475
429.7833
473.8833
501.5731
667.6362
0.0 0.230575 0.187622
283.3729
283.9347
411.1205
464.6881
521.1006
655.3072
0.0 0.230575 0.250163
318.5725
328.735
384.7565
422.7657
564.8746
634.223
0.0 0.230575 -0.312703
352.9456
352.9456
376.0138
376.0138
603.7096
603.7096
0.0 0.345862 0.0
278.5762
288.6788
476.5748
545.927
608.6034
620.586
0.0 0.345862 0.062541
286.4434
291.5501
473.6442
552.6091
583.9924
644.0186
0.0 0.345862 0.125081
301.2552
307.2769
464.3865
535.6705
588.1253
665.3851
0.0 0.345862 0.187622
320.448
335.4428
448.0892
493.5442
616.1592
675.9761
0.0 0.345862 0.250163
351.8273
366.3132
425.0464
444.7287
642.5639
674.5659
0.0 0.345862 -0.312703
395.0235
395.0235
396.9804
396.9804
662.6996
662.6996
0.0 0.461149 0.0
305.9036
360.0768
495.6125
565.5378
599.4908
652.3046
0.0 0.461149 0.062541
312.8333
357.6769
492.7455
552.2038
611.8334
663.3696
0.0 0.461149 0.125081
331.6336
353.2552
483.7185
524.3984
637.157
684.6024
0.0 0.461149 0.187622
353.7927
357.9798
467.8519
487.3485
664.1109
700.8472
0.0 0.461149 0.250163
367.8785
387.7663
443.1863
445.3525
686.0285
706.0329
0.0 0.461149 -0.312703
399.6317
399.6317
417.8188
417.8188
700.4383
700.4383
0.0 -0.576436 0.0
312.1916
393.3937
501.4179
536.809
613.5323
664.1887
0.0 -0.576436 0.062541
318.8028
387.9283
498.5237
530.3813
624.4696
673.3008
0.0 -0.576436 0.125081
336.938
376.455
489.4137
511.5738
649.7494
692.9551
0.0 -0.576436 0.187622
362.794
368.7592
473.3941
480.6797
676.7169
709.7265
0.0 -0.576436 0.250163
375.1606
392.5092
440.6684
450.6482
698.08
716.1072
0.0 -0.576436 -0.312703
401.1534
401.1534
422.7995
422.7995
711.6075
711.6075
0.099842 0.172931 0.0
174.2689
208.1944
367.3885
449.227
496.6994
687.2505
0.099842 0.172931 0.062541
188.0387
218.2309
382.2908
447.2211
490.6295
683.5009
0.099842 0.172931 0.125081
222.2826
243.6991
411.6673
448.9457
472.2596
672.3025
0.099842 0.172931 0.187622
264.9105
276.3129
406.9377
442.2498
488.4879
653.3269
0.099842 0.172931 0.250163
308.581
310.441
383.1959
403.8459
540.6075
625.476
0.099842 0.172931 -0.312703
337.0021
337.0021
368.0225
368.0225
587.7062
587.7062
0.099842 0.288218 0.0
257.9827
290.8582
451.328
530.8093
571.7358
640.0026
0.099842 0.288218 0.062541
260.3737
299.3876
456.6652
532.7874
560.0133
647.4671
0.099842 0.288218 0.125081
271.1752
320.6713
461.5724
520.1867
557.3273
658.2773
0.099842 0.288218 0.187622
293.7284
347.7253
452.2976
483.6513
582.6986
661.4655
0.099842 0.288218 0.250163
327.2957
373.1001
427.7765
447.6079
611.9114
654.0501
0.099842 0.288218 -0.312703
365.5824
365.5824
421.6553
421.6553
636.8104
636.8104
0.099842 0.403505 0.0
333.7006
336.286
494.7416
583.6044
583.6452
632.9135
0.099842 0.403505 0.062541
325.6582
348.9228
495.1893
559.2744
600.3326
646.1025
0.099842 0.403505 0.125081
320.8752
368.8382
487.9674
532.0995
619.8431
668.1522
0.099842 0.403505 0.187622
324.4392
392.6489
463.5268
507.4532
643.6843
683.2175
0.099842 0.403505 0.250163
341.6091
405.0616
439.174
483.0544
665.1618
686.9628
0.099842 0.403505 -0.312703
373.2723
373.2723
457.2818
457.2818
680.2456
680.2456
0.099842 0.518793 0.0
352.3039
388.4592
514.628
535.9537
604.1281
660.3787
0.099842 0.518793 0.062541
352.9595
388.6324
503.9575
537.8405
615.3963
667.5381
0.099842 0.518793 0.125081
350.0952
396.8848
480.9953
534.3837
640.4017
684.2437
0.099842 0.518793 0.187622
345.9504
415.9459
450.777
520.4481
666.8949
699.4417
0.099842 0.518793 0.250163
352.2322
410.4849
444.8916
498.2917
687.942
705.4561
0.099842 0.518793 -0.312703
375.5277
375.5277
471.766
471.766
701.1624
701.1624
0.199683 0.345862 0.0
322.3508
377.8245
481.9135
589.4029
591.5761
609.3051
0.199683 0.345862 0.062541
318.0561
383.7224
491.6393
553.6283
610.7346
624.1678
0.199683 0.345862 0.125081
312.1469
398.6401
508.1764
515.2514
617.3143
650.834
0.199683 0.345862 0.187622
314.6695
413.1688
479.3301
513.0875
631.7941
666.5561
0.199683 0.345862 0.250163
331.5697
400.2749
469.8416
503.4913
649.4739
670.195
0.199683 0.345862 -0.312703
363.2694
363.2694
486.0186
486.0186
663.5559
663.5559
0.199683 0.461149 0.0
380.4403
426.4794
521.0097
534.4952
593.7701
649.8331
0.199683 0.461149 0.062541
370.8132
433.4626
511.9414
537.9348
609.0458
651.4647
0.199683 0.461149 0.125081
353.9571
443.5438
488.8675
553.4561
632.2162
659.4999
0.199683 0.461149 0.187622
342.0955
428.7564
488.774
557.8531
651.0952
672.4819
0.199683 0.461149 0.250163
343.0492
393.976
508.107
547.7867
667.1339
679.5952
0.199683 0.461149 -0.312703
361.5439
361.5439
529.5247
529.5247
677.4204
677.4204
0.199683 0.576436 0.0
412.6677
438.4346
501.9597
545.498
585.5345
662.6053
0.199683 0.576436 0.062541
397.6559
451.7967
484.3168
561.0249
596.6976
663.8541
0.199683 0.576436 0.125081
375.2724
454.7061
472.8434
577.1156
622.3529
669.5708
0.199683 0.576436 0.187622
357.0956
421.7812
496.0758
576.8371
649.2666
678.9824
0.199683 0.576436 0.250163
350.4261
388.1304
520.2424
563.6048
669.7458
684.4871
0.199683 0.576436 -0.312703
361.3583
361.3583
543.522
543.522
681.5856
681.5856
0.299525 0.518793 0.0
425.9366
482.8896
498.1392
542.2396
573.1608
662.4845
0.299525 0.518793 0.062541
414.2587
465.3491
507.6081
557.4249
588.2439
659.8738
0.299525 0.518793 0.125081
391.2368
436.3052
523.1978
586.3329
617.213
653.4613
0.299525 0.518793 0.187622
369.1601
405.0374
543.0599
605.6354
642.2415
649.5485
0.299525 0.518793 0.250163
355.5654
376.1551
564.7615
601.9449
655.3965
656.7292
0.299525 0.518793 -0.312703
357.4719
357.4719
585.4795
585.4795
660.3289
660.3289
P	=	3799.9	V	=	86.67619	E	=	-655.03348261
0.0 0.0 0.0
-0.0
0.0
0.0
395.0998
395.0998
742.1028
0.0 0.0 0.062534
62.1025
62.1025
135.565
390.8147
390.8147
733.4586
0.0 0.0 0.125068
120.4952
120.4952
265.2639
376.9478
376.9478
709.2549
0.0 0.0 0.187602
174.0438
174.0438
351.8642
351.8642
382.8829
672.7556
0.0 0.0 0.250137
224.1709
224.1709
315.8659
315.8659
482.9827
624.9732
0.0 0.0 -0.312671
272.0148
272.0148
272.0148
272.0148
563.108
563.108
0.0 0.115291 0.0
103.5562
120.9192
241.1756
412.613
442.0769
727.5298
0.0 0.115291 0.062534
134.3836
136.7346
267.2617
408.6544
437.4744
720.3036
0.0 0.115291 0.125068
173.0365
185.8935
335.8149
395.9087
422.8608
699.8951
0.0 0.115291 0.187602
215.4837
233.2756
373.0197
397.1435
421.519
668.5753
0.0 0.115291 0.250137
258.654
277.4848
340.4278
361.8599
503.4083
626.7808
0.0 0.115291 -0.312671
301.0682
301.0682
320.6744
320.6744
572.4202
572.4202
0.0 0.230582 0.0
203.0199
219.7729
435.0968
450.1325
536.7843
687.4665
0.0 0.230582 0.062534
214.9762
229.6897
446.7741
448.4706
529.5721
685.8596
0.0 0.230582 0.125068
246.1569
255.0564
436.0723
481.7239
509.5495
679.9302
0.0 0.230582 0.187602
287.6881
287.9226
417.0901
471.8884
529.9851
667.1916
0.0 0.230582 0.250137
323.0613
333.6804
390.2788
429.24
574.5576
645.495
0.0 0.230582 -0.312671
357.9534
357.9534
381.679
381.679
614.2168
614.2168
0.0 0.345872 0.0
282.7427
292.8879
483.8246
555.305
618.8609
631.871
0.0 0.345872 0.062534
290.7273
295.8939
480.8428
561.996
594.1596
655.5187
0.0 0.345872 0.125068
305.9124
311.8578
471.4175
544.6243
598.4508
677.3298
0.0 0.345872 0.187602
325.4758
340.4052
454.8177
501.7114
626.9079
688.0878
0.0 0.345872 0.250137
357.3387
371.6972
431.3575
451.9263
653.76
686.5316
0.0 0.345872 -0.312671
401.2687
401.2687
402.822
402.822
674.318
674.318
0.0 0.461163 0.0
310.9432
365.3833
503.3988
575.4681
610.2437
664.239
0.0 0.461163 0.062534
317.9675
363.1
500.4901
561.8259
622.7818
675.5555
0.0 0.461163 0.125068
337.0062
358.8879
491.3159
533.4124
648.4946
697.2389
0.0 0.461163 0.187602
359.5772
363.6607
475.1644
495.5867
675.9014
713.7542
0.0 0.461163 0.250137
373.8791
393.8042
450.5272
452.2591
698.2574
718.9094
0.0 0.461163 -0.312671
406.1493
406.1493
424.2741
424.2741
713.0507
713.0507
0.0 -0.576454 0.0
317.5642
399.2727
509.3978
546.0347
624.7806
676.7329
0.0 -0.576454 0.062534
324.2622
393.9149
506.4674
539.4772
635.8097
686.029
0.0 -0.576454 0.125068
342.6136
382.5897
497.2215
520.2939
661.3916
706.0488
0.0 -0.576454 0.187602
368.747
374.9281
480.9255
488.7835
688.8073
723.0551
0.0 -0.576454 0.250137
381.401
398.791
447.9922
457.7771
710.6478
729.3909
0.0 -0.576454 -0.312671
407.7716
407.7716
429.4823
429.4823
724.602
724.602
0.099845 0.172936 0.0
176.8604
210.9974
373.1927
456.0729
504.1159
700.1332
0.099845 0.172936 0.062534
190.8561
221.2119
388.3201
454.1121
498.0034
696.2742
0.099845 0.172936 0.125068
225.6383
247.0989
417.789
456.3595
479.441
684.7493
0.099845 0.172936 0.187602
268.8644
280.1946
412.8099
448.9917
496.8187
665.2339
0.099845 0.172936 0.250137
313.0908
314.7945
388.7258
409.9353
549.8965
636.6427
0.099845 0.172936 -0.312671
341.7422
341.7422
373.4911
373.4911
597.9748
597.9748
0.099845 0.288227 0.0
261.7517
295.0064
458.1038
539.7545
580.9772
651.7686
0.099845 0.288227 0.062534
264.2202
303.6872
463.477
541.7416
569.2842
659.2702
0.099845 0.288227 0.125068
275.2548
325.3163
468.3987
528.6307
567.0625
670.1802
0.099845 0.288227 0.187602
298.1528
352.7509
459.0331
491.4211
592.8542
673.3184
0.099845 0.288227 0.250137
332.1794
378.4367
434.3678
454.4751
622.5399
665.616
0.099845 0.288227 -0.312671
370.9646
370.9646
428.0329
428.0329
647.93
647.93
0.099845 0.403518 0.0
338.5891
341.4833
502.3806
593.8504
594.0063
644.1275
0.099845 0.403518 0.062534
330.5412
354.302
502.8286
568.9789
611.0219
657.6407
0.099845 0.403518 0.125068
325.8054
374.5649
495.5967
541.075
630.8784
680.1928
0.099845 0.403518 0.187602
329.484
398.6767
470.9925
515.6551
655.0983
695.5383
0.099845 0.403518 0.250137
346.8934
411.1996
446.2732
490.6533
676.9386
699.2714
0.099845 0.403518 -0.312671
379.0326
379.0326
464.4379
464.4379
692.3372
692.3372
0.099845 0.518809 0.0
358.1176
394.2727
522.7962
545.1889
615.0673
672.6431
0.099845 0.518809 0.062534
358.6694
394.7142
512.0962
546.9302
626.4608
679.9574
0.099845 0.518809 0.125068
355.6717
403.4133
488.8377
543.2539
651.8101
696.986
0.099845 0.518809 0.187602
351.4998
422.7503
458.1334
528.9748
678.7569
712.4082
0.099845 0.518809 0.250137
357.8427
417.0172
452.1656
506.3725
700.2572
718.4014
0.099845 0.518809 -0.312671
381.473
381.473
479.396
479.396
713.8619
713.8619
0.19969 0.345872 0.0
327.0665
383.4674
489.3586
599.9714
601.4904
620.1367
0.19969 0.345872 0.062534
322.7717
389.4624
499.208
563.1225
621.6304
635.1376
0.19969 0.345872 0.125068
316.8785
404.592
515.9423
524.0168
628.3965
662.3906
0.19969 0.345872 0.187602
319.4668
419.2643
487.4201
520.9107
643.114
678.4207
0.19969 0.345872 0.250137
336.5925
406.3083
477.3871
511.1973
661.0236
682.0914
0.19969 0.345872 -0.312671
368.7782
368.7782
493.545
493.545
675.3129
675.3129
0.19969 0.461163 0.0
386.1474
433.2456
529.4094
543.7451
604.1619
661.5367
0.19969 0.461163 0.062534
376.4514
440.321
520.502
546.8537
619.7536
663.2146
0.19969 0.461163 0.125068
359.4515
450.4815
497.1536
562.4216
643.4278
671.4153
0.19969 0.461163 0.187602
347.4427
435.5085
496.8778
566.8184
662.7105
684.5997
0.19969 0.461163 0.250137
348.3732
400.1525
516.3694
556.5843
679.0455
691.7911
0.19969 0.461163 -0.312671
367.1487
367.1487
538.0586
538.0586
689.5341
689.5341
0.19969 0.576454 0.0
419.0095
445.6147
510.427
554.3962
595.9752
674.5924
0.19969 0.576454 0.062534
403.8383
459.2212
492.3429
570.3062
607.2665
675.8799
0.19969 0.576454 0.125068
381.1935
462.1204
480.6685
586.6914
633.298
681.7418
0.19969 0.576454 0.187602
362.7591
428.556
504.2781
586.3686
660.6999
691.3222
0.19969 0.576454 0.250137
355.9346
394.2613
528.8195
572.8879
681.6221
696.8527
0.19969 0.576454 -0.312671
367.0083
367.0083
552.4685
552.4685
693.7862
693.7862
0.299534 0.518809 0.0
432.6103
490.9145
506.3997
551.4165
583.0578
674.1373
0.299534 0.518809 0.062534
420.7815
472.9675
516.0981
566.8691
598.4374
671.4462
0.299534 0.518809 0.125068
397.4331
443.3636
531.9152
596.2812
628.0009
664.878
0.299534 0.518809 0.187602
374.9946
411.509
552.0744
615.8117
653.5407
660.9761
0.299534 0.518809 0.250137
361.1305
382.0746
574.1466
611.9812
666.9887
668.3167
0.299534 0.518809 -0.312671
363.0427
363.0427
595.2296
595.2296
671.9963
671.9963
P	=	3999.97	V	=	85.63127	E	=	-655.00578186
0.0 0.0 0.0
-0.0
0.0
0.0
400.5771
400.5771
755.6266
0.0 0.0 0.062528
62.8323
62.8323
137.5376
396.2136
396.2136
746.7555
0.0 0.0 0.125056
121.9579
121.9579
269.2474
382.1128
382.1128
721.934
0.0 0.0 0.187585
176.244
176.244
356.6454
356.6454
388.865
684.5535
0.0 0.0 0.250113
227.1041
227.1041
320.1277
320.1277
490.8179
635.6972
0.0 0.0 -0.312641
275.6482
275.6482
275.6482
275.6482
572.5312
572.5312
0.0 0.115295 0.0
104.9688
122.3772
244.9866
418.3522
448.2668
740.7236
0.0 0.115295 0.062528
136.1288
138.3778
271.4692
414.3194
443.5985
733.3117
0.0 0.115295 0.125056
175.14
188.2723
341.0873
401.352
428.7713
712.3894
0.0 0.115295 0.187585
218.1839
236.2983
378.0991
402.6523
428.2468
680.3131
0.0 0.115295 0.250113
262.0048
281.1497
345.0156
366.8264
511.6466
637.5657
0.0 0.115295 -0.312641
305.0655
305.0655
324.9988
324.9988
582.041
582.041
0.0 0.23059 0.0
205.7813
222.5823
442.1246
456.4591
544.6518
699.7456
0.0 0.23059 0.062528
217.9046
232.622
453.0319
455.6878
537.3765
698.0667
0.0 0.23059 0.125056
249.5182
258.3198
442.1265
489.318
517.2501
691.9181
0.0 0.23059 0.187585
291.631
291.649
422.8163
478.7796
538.6277
678.7933
0.0 0.23059 0.250113
327.3138
338.3035
395.573
435.441
584.0135
656.5236
0.0 0.23059 -0.312641
362.7432
362.7432
387.0749
387.0749
624.5059
624.5059
0.0 0.345885 0.0
286.6703
296.9091
490.7357
564.4459
628.7617
642.8588
0.0 0.345885 0.062528
294.7608
300.0298
487.6894
571.0688
604.0654
666.6543
0.0 0.345885 0.125056
310.315
316.1736
478.0758
553.2254
608.5174
688.8802
0.0 0.345885 0.187585
330.2224
345.1061
461.1802
509.5716
637.3617
699.8235
0.0 0.345885 0.250113
362.5858
376.8261
437.3446
458.8595
664.6703
698.1706
0.0 0.345885 -0.312641
407.2678
407.2678
408.3879
408.3879
685.6482
685.6482
0.0 0.46118 0.0
315.6308
370.5297
510.7007
585.1248
620.4994
675.7785
0.0 0.46118 0.062528
322.7456
368.3413
507.7359
571.1552
633.259
687.3213
0.0 0.46118 0.125056
342.0241
364.2942
498.395
542.1311
659.3717
709.4298
0.0 0.46118 0.187585
365.1083
369.0047
481.9763
503.5393
687.2523
726.2254
0.0 0.46118 0.250113
379.6281
399.5136
457.6031
458.7293
710.0794
731.3799
0.0 0.46118 -0.312641
412.4181
412.4181
430.3658
430.3658
725.2728
725.2728
0.0 -0.576475 0.0
322.5287
405.0037
516.8333
555.0002
635.4119
688.8694
0.0 -0.576475 0.062528
329.3084
399.7262
513.8521
548.3079
646.545
698.3381
0.0 -0.576475 0.125056
347.8775
388.4995
504.4522
528.737
672.459
718.7068
0.0 -0.576475 0.187585
374.3108
380.8424
487.9024
496.6053
700.3695
735.9477
0.0 -0.576475 0.250113
387.3839
404.6985
455.0439
464.4224
722.7409
742.2466
0.0 -0.576475 -0.312641
414.1309
414.1309
435.7583
435.7583
737.1597
737.1597
0.099848 0.172943 0.0
179.2664
213.7106
378.9364
462.7717
511.3141
712.7042
0.099848 0.172943 0.062528
193.4173
224.0506
394.226
460.8415
505.1289
708.7361
0.099848 0.172943 0.125056
228.6192
250.2703
423.701
463.5724
486.3216
696.8927
0.099848 0.172943 0.187585
272.4148
283.8208
418.4695
455.4185
504.9058
676.8632
0.099848 0.172943 0.250113
317.2671
318.9236
394.0484
415.7346
558.957
647.5689
0.099848 0.172943 -0.312641
346.2675
346.2675
378.6935
378.6935
608.0248
608.0248
0.099848 0.288238 0.0
265.3282
299.0229
464.6716
548.4772
589.8814
663.2316
0.099848 0.288238 0.062528
267.8448
307.8327
470.05
550.4172
578.2542
670.7497
0.099848 0.288238 0.125056
279.0488
329.7675
474.9468
536.6929
576.562
681.7353
0.099848 0.288238 0.187585
302.2646
357.5677
465.4701
498.8574
602.7534
684.8362
0.099848 0.288238 0.250113
336.7819
383.577
440.6434
461.0898
632.9237
676.8927
0.099848 0.288238 -0.312641
376.1088
376.1088
434.1601
434.1601
658.8005
658.8005
0.099848 0.403533 0.0
343.3134
346.4495
509.637
603.6159
604.127
654.9756
0.099848 0.403533 0.062528
335.2133
359.4651
510.0659
578.3276
621.3692
668.7691
0.099848 0.403533 0.125056
330.485
380.0566
502.7896
549.7214
641.5633
691.7892
0.099848 0.403533 0.187585
334.2609
404.4685
478.0353
523.5415
666.1638
707.4312
0.099848 0.403533 0.250113
351.9219
417.0964
453.0244
497.9454
688.3813
711.2005
0.099848 0.403533 -0.312641
384.5388
384.5388
471.3001
471.3001
704.0892
704.0892
0.099848 0.518828 0.0
363.6039
399.9419
530.4594
554.1693
625.4198
684.5122
0.099848 0.518828 0.062528
364.0661
400.6012
519.7704
555.6983
636.9549
691.9728
0.099848 0.518828 0.125056
360.9676
409.6543
496.237
551.7504
662.6782
709.3099
0.099848 0.518828 0.187585
356.7806
429.2371
465.0765
537.1153
690.1217
724.9574
0.099848 0.518828 0.250113
363.1932
423.2219
459.0971
514.0821
712.1258
730.9407
0.099848 0.518828 -0.312641
387.1407
387.1407
486.679
486.679
726.1501
726.1501
0.199697 0.345885 0.0
331.6199
388.9818
496.49
610.257
610.8674
630.7008
0.199697 0.345885 0.062528
327.2959
395.0603
506.4512
572.2186
632.2584
645.6599
0.199697 0.345885 0.125056
321.363
410.378
523.3723
532.3749
639.2096
673.4735
0.199697 0.345885 0.187585
323.9944
425.1814
495.1096
528.4159
654.1641
689.8355
0.199697 0.345885 0.250113
341.3649
412.1123
484.6215
518.6156
672.2974
693.6054
0.199697 0.345885 -0.312641
374.0501
374.0501
500.7973
500.7973
686.7575
686.7575
0.199697 0.46118 0.0
391.7167
439.7809
537.3971
552.7489
613.966
672.881
0.199697 0.46118 0.062528
381.9084
446.9494
528.7084
555.4085
629.9132
674.6091
0.199697 0.46118 0.125056
364.7036
457.1789
505.055
570.997
654.1617
682.945
0.199697 0.46118 0.187585
352.5266
441.966
504.6294
575.4215
673.9287
696.296
0.199697 0.46118 0.250113
353.4484
406.0437
524.3052
565.0522
690.5941
703.5884
0.199697 0.46118 -0.312641
372.5027
372.5027
546.2744
546.2744
701.2815
701.2815
0.199697 0.576475 0.0
425.2153
452.4963
518.6736
562.8134
605.8529
686.1869
0.199697 0.576475 0.062528
409.8285
466.3553
500.0801
579.1433
617.2825
687.5283
0.199697 0.576475 0.125056
386.8708
469.1911
488.1692
595.8454
643.7142
693.5516
0.199697 0.576475 0.187585
368.1616
434.9785
512.1317
595.5229
671.6469
703.2978
0.199697 0.576475 0.250113
361.1927
400.0823
537.0466
581.8249
693.0683
708.8504
0.199697 0.576475 -0.312641
372.3977
372.3977
561.0731
561.0731
705.6015
705.6015
0.299545 0.518828 0.0
439.1411
498.7446
514.3199
560.1603
592.437
685.3971
0.299545 0.518828 0.062528
427.1122
480.3398
524.2354
575.8928
608.1312
682.6534
0.299545 0.518828 0.125056
403.3683
450.1232
540.2406
605.8218
638.3042
675.9844
0.299545 0.518828 0.187585
380.5455
417.6656
560.6783
625.6263
664.3875
672.1034
0.299545 0.518828 0.250113
366.4328
387.7092
583.1372
621.6972
678.2504
679.5066
0.299545 0.518828 -0.312641
368.36
368.36
604.629
604.629
683.312
683.312
P	=	4999.79	V	=	81.0908	E	=	-654.86745254
0.0 0.0 0.0
-0.0
0.0
0.0
426.0268
426.0268
818.0763
0.0 0.0 0.062507
66.2852
66.2852
147.1712
421.3813
421.3813
808.2244
0.0 0.0 0.125013
128.8735
128.8735
288.3444
406.3807
406.3807
780.6506
0.0 0.0 0.18752
186.6578
186.6578
379.2954
379.2954
416.9652
739.1667
0.0 0.0 0.250026
241.029
241.029
340.4151
340.4151
527.1041
685.1913
0.0 0.0 -0.312533
292.9479
292.9479
292.9479
292.9479
615.9502
615.9502
0.0 0.115327 0.0
112.3592
129.3401
262.8515
445.0066
477.2116
801.74
0.0 0.115327 0.062507
145.0923
146.1813
291.2812
440.6832
472.293
793.5242
0.0 0.115327 0.125013
185.0532
200.0897
365.9852
426.8089
456.5915
770.3058
0.0 0.115327 0.18752
230.8699
250.944
401.9725
428.703
459.7558
734.703
0.0 0.115327 0.250026
277.7583
298.6515
366.635
390.3585
549.868
687.4273
0.0 0.115327 -0.312533
323.8949
323.8949
345.5261
345.5261
626.4816
626.4816
0.0 0.230654 0.0
219.5043
235.8553
475.0457
486.0193
581.8153
756.7121
0.0 0.230654 0.062507
232.3963
246.4131
482.2891
489.5536
574.2185
754.7457
0.0 0.230654 0.125013
266.0215
273.5481
470.4713
525.0039
553.5319
747.6464
0.0 0.230654 0.18752
308.9686
310.7957
449.6488
511.377
578.9448
732.7154
0.0 0.230654 0.250026
347.0996
360.5016
420.3601
464.7794
627.9573
707.7053
0.0 0.230654 -0.312533
385.1051
385.1051
412.7271
412.7271
672.2221
672.2221
0.0 0.345981 0.0
305.2991
315.8281
523.3771
607.5921
675.5377
693.887
0.0 0.345981 0.062507
313.8141
319.4931
520.0415
614.008
650.2624
718.7785
0.0 0.345981 0.125013
331.1195
336.4002
509.5623
593.7756
655.4599
742.9037
0.0 0.345981 0.18752
352.8251
367.0359
491.2567
546.5458
686.0871
754.5987
0.0 0.345981 0.250026
387.6488
400.7775
465.5699
491.5933
715.4342
752.3759
0.0 0.345981 -0.312533
434.5013
434.5013
435.7892
435.7892
738.3475
738.3475
0.0 0.461308 0.0
338.2708
393.996
545.3814
629.751
669.5613
729.8708
0.0 0.461308 0.062507
345.7531
392.3211
542.1711
614.4178
683.0276
742.3763
0.0 0.461308 0.125013
366.0212
389.2648
532.0747
582.5791
710.6414
766.2943
0.0 0.461308 0.18752
390.9983
394.3967
514.3884
540.5092
740.4567
784.2823
0.0 0.461308 0.250026
406.8125
426.5586
489.4667
490.7326
765.3051
789.4314
0.0 0.461308 -0.312533
442.0271
442.0271
459.2386
459.2386
782.2446
782.2446
0.0 -0.576636 0.0
346.7549
430.977
552.1767
596.2048
686.5578
745.5584
0.0 -0.576636 0.062507
353.8767
426.1958
548.9761
588.8768
697.9592
755.7088
0.0 -0.576636 0.125013
373.352
415.7178
538.8848
567.5146
724.9802
777.4989
0.0 -0.576636 0.18752
401.0387
408.4433
521.1441
532.6498
754.8152
795.7654
0.0 -0.576636 0.250026
415.5763
432.9122
487.8452
496.0726
779.3935
802.0084
0.0 -0.576636 -0.312533
444.0358
444.0358
465.6522
465.6522
795.7471
795.7471
0.099876 0.172991 0.0
191.4285
226.4711
405.8209
494.0122
545.2677
770.9848
0.099876 0.172991 0.062507
206.2997
237.3468
421.9201
492.2455
538.7782
766.5523
0.099876 0.172991 0.125013
243.4365
265.0228
451.4303
497.277
518.8942
753.2937
0.099876 0.172991 0.18752
289.7855
300.6385
444.9395
485.9051
542.6325
730.8653
0.099876 0.172991 0.250026
337.3677
338.1003
418.9054
443.2768
601.0347
698.2261
0.099876 0.172991 -0.312533
367.5141
367.5141
403.2983
403.2983
654.585
654.585
0.099876 0.288318 0.0
282.5413
317.733
495.7775
589.2617
632.0769
716.5351
0.099876 0.288318 0.062507
285.2863
327.0765
501.1541
591.106
620.5005
724.2768
0.099876 0.288318 0.125013
297.3474
350.3093
505.832
574.9742
620.7102
735.7189
0.099876 0.288318 0.18752
322.1383
379.7615
495.7681
534.0736
648.7622
738.6068
0.099876 0.288318 0.250026
358.9294
407.3865
470.2995
492.2487
681.1307
729.4083
0.099876 0.288318 -0.312533
400.5302
400.5302
462.9166
462.9166
709.2989
709.2989
0.099876 0.403645 0.0
365.2049
369.8282
544.1786
650.0534
651.1757
705.81
0.099876 0.403645 0.062507
357.0667
383.5375
544.4581
622.2908
669.8557
720.9519
0.099876 0.403645 0.125013
352.5096
405.5492
536.8911
590.3196
691.4891
746.1061
0.099876 0.403645 0.18752
356.958
431.3056
511.4547
560.5476
717.7254
763.0099
0.099876 0.403645 0.250026
375.9793
444.6933
484.9774
532.1473
741.6223
766.8203
0.099876 0.403645 -0.312533
410.7933
410.7933
503.4908
503.4908
758.7901
758.7901
0.099876 0.518972 0.0
389.8356
425.8672
566.8436
595.7077
675.1322
739.8116
0.099876 0.518972 0.062507
389.726
427.7473
555.9275
596.5333
687.0998
747.8928
0.099876 0.518972 0.125013
385.9561
438.7873
531.0104
591.4226
714.1481
766.5544
0.099876 0.518972 0.18752
381.7663
459.6352
497.7929
575.2007
743.5416
783.2062
0.099876 0.518972 0.250026
388.6887
452.5024
491.7419
550.2484
767.6341
789.2171
0.099876 0.518972 -0.312533
414.1257
414.1257
520.9122
520.9122
783.4141
783.4141
0.199752 0.345981 0.0
352.9756
414.3935
530.7309
655.7807
658.2456
679.6223
0.199752 0.345981 0.062507
348.5801
420.7947
541.062
615.1869
681.445
695.4035
0.199752 0.345981 0.125013
342.6203
436.8762
558.5473
571.9906
689.1908
725.7612
0.199752 0.345981 0.18752
345.6682
452.3586
531.6456
563.6668
705.2256
743.5009
0.199752 0.345981 0.250026
364.3405
439.4225
518.6086
553.3079
724.4867
747.4565
0.199752 0.345981 -0.312533
399.3018
399.3018
534.6752
534.6752
739.972
739.972
0.199752 0.461308 0.0
417.579
470.2816
575.4466
594.8237
660.8752
725.4409
0.199752 0.461308 0.062507
407.365
477.7627
567.2625
595.9455
678.225
727.4052
0.199752 0.461308 0.125013
389.3841
488.1698
542.3541
611.3775
704.652
736.5351
0.199752 0.461308 0.18752
376.6608
472.1891
541.0427
615.6963
726.1997
750.8454
0.199752 0.461308 0.250026
377.7842
434.0337
561.4091
604.5958
744.2524
758.5612
0.199752 0.461308 -0.312533
398.1943
398.1943
584.6359
584.6359
755.9082
755.9082
0.199752 0.576636 0.0
454.0474
484.9355
557.1657
602.5266
653.1576
739.9149
0.199752 0.576636 0.062507
437.8077
499.8518
536.2297
620.7199
665.0757
741.4684
0.199752 0.576636 0.125013
413.53
502.2936
523.3485
638.7321
693.0141
748.1943
0.199752 0.576636 0.18752
393.7608
465.226
548.937
638.261
723.0492
758.7347
0.199752 0.576636 0.250026
386.3698
427.7767
575.5401
623.5115
746.5007
764.4804
0.199752 0.576636 -0.312533
398.2557
398.2557
601.2562
601.2562
760.5348
760.5348
0.299629 0.518972 0.0
469.7345
535.5208
551.6229
601.4808
636.8696
737.5144
0.299629 0.518972 0.062507
456.8009
514.8918
562.6628
618.3828
653.9291
734.4879
0.299629 0.518972 0.125013
431.2918
481.8397
579.5677
650.4558
686.7348
727.2829
0.299629 0.518972 0.18752
406.8737
446.759
601.2176
671.3012
715.1054
723.5056
0.299629 0.518972 0.250026
391.8604
414.6408
625.299
666.853
730.3659
731.5907
0.299629 0.518972 -0.312533
393.9653
393.9653
648.4696
648.4696
735.7974
735.7974
P	=	6000.01	V	=	77.38967	E	=	-654.72944832
0.0 0.0 0.0
-0.0
0.0
0.0
447.712
447.712
873.218
0.0 0.0 0.062482
69.1355
69.1355
155.7386
442.8302
442.8302
862.5196
0.0 0.0 0.124963
134.6939
134.6939
305.3379
427.0948
427.0948
832.5707
0.0 0.0 0.187445
195.6017
195.6017
398.7157
398.7157
441.9812
787.5422
0.0 0.0 0.249926
253.1271
253.1271
357.9355
357.9355
559.402
729.1217
0.0 0.0 -0.312408
307.9839
307.9839
307.9839
307.9839
654.5567
654.5567
0.0 0.115359 0.0
119.5649
135.4844
279.0387
467.9223
502.2434
855.6599
0.0 0.115359 0.062482
152.9372
153.4689
309.0414
463.3316
497.076
846.747
0.0 0.115359 0.124963
193.5149
210.6201
388.1548
448.6648
480.6009
821.5506
0.0 0.115359 0.187445
241.7831
263.8374
422.5213
451.2786
487.8671
782.9302
0.0 0.115359 0.249926
291.4529
314.1557
385.3582
410.9853
583.9974
731.7734
0.0 0.115359 -0.312408
340.2914
340.2914
363.7073
363.7073
666.117
666.117
0.0 0.230719 0.0
232.4265
247.6404
504.7696
511.7726
614.6046
807.1541
0.0 0.230719 0.062482
245.862
258.5381
507.7243
519.8945
606.6523
804.9294
0.0 0.230719 0.124963
281.0081
286.7627
495.0218
556.4044
585.6472
797.002
0.0 0.230719 0.187445
323.9994
328.0762
472.8826
539.9951
614.8357
780.5618
0.0 0.230719 0.249926
364.3777
380.6179
441.9224
490.9268
667.1911
753.2888
0.0 0.230719 -0.312408
404.654
404.654
435.9173
435.9173
714.8495
714.8495
0.0 0.346078 0.0
321.8684
332.8861
551.9998
646.2906
717.3264
739.1532
0.0 0.346078 0.062482
330.6714
336.9528
548.3425
652.1387
691.5618
765.0417
0.0 0.346078 0.124963
349.6602
354.1554
536.984
629.5087
697.309
790.7251
0.0 0.346078 0.187445
373.0794
386.264
517.4185
579.3039
729.3448
803.0948
0.0 0.346078 0.249926
410.3791
421.829
490.2187
520.9589
760.5616
800.5025
0.0 0.346078 -0.312408
457.426
457.426
461.6797
461.6797
785.2378
785.2378
0.0 0.461437 0.0
358.3208
414.4903
575.8641
669.3588
713.4596
778.304
0.0 0.461437 0.062482
366.0876
413.2518
572.3798
652.7808
727.4114
791.5221
0.0 0.461437 0.124963
387.1743
411.0983
561.5157
618.371
756.073
816.8236
0.0 0.461437 0.187445
413.8499
416.7874
542.6949
573.2736
787.4388
835.7481
0.0 0.461437 0.249926
431.1224
450.4312
516.4025
520.2992
814.109
840.867
0.0 0.461437 -0.312408
468.6177
468.6177
484.667
484.667
832.6865
832.6865
0.0 -0.576797 0.0
368.1422
453.4068
583.2641
632.8019
732.3201
796.2786
0.0 -0.576797 0.062482
375.5499
449.0987
579.8205
624.8317
743.7909
806.9572
0.0 -0.576797 0.124963
395.815
439.4021
569.0322
601.7616
771.4581
829.8317
0.0 -0.576797 0.187445
424.6401
432.6942
550.2281
564.4815
802.7908
848.8443
0.0 -0.576797 0.249926
440.6166
457.8483
516.9497
523.8503
829.3289
854.9237
0.0 -0.576797 -0.312408
470.6914
470.6914
492.0107
492.0107
847.509
847.509
0.099904 0.173039 0.0
203.0262
237.9333
429.7323
521.699
574.9272
822.5655
0.099904 0.173039 0.062482
218.3638
249.1354
446.2822
520.1143
568.1091
817.7229
0.099904 0.173039 0.124963
256.874
277.8723
475.3326
527.3825
547.2292
803.2412
0.099904 0.173039 0.187445
305.336
315.2646
467.8494
512.5767
576.259
778.7913
0.099904 0.173039 0.249926
354.8751
355.3812
440.6438
467.725
638.6311
743.3485
0.099904 0.173039 -0.312408
386.1705
386.1705
425.3608
425.3608
696.187
696.187
0.099904 0.288398 0.0
298.3885
334.567
523.1446
625.7524
669.5715
763.8356
0.099904 0.288398 0.062482
301.1995
344.2607
528.3473
627.1695
658.1981
771.7481
0.099904 0.288398 0.124963
313.7916
368.4309
532.6248
608.5543
660.1713
783.5254
0.099904 0.288398 0.187445
339.9719
399.2914
522.0835
565.188
689.728
786.2548
0.099904 0.288398 0.249926
378.9302
428.4173
496.4369
520.0996
724.0841
776.0869
0.099904 0.288398 -0.312408
422.3802
422.3802
488.6582
488.6582
754.3023
754.3023
0.099904 0.403758 0.0
384.7164
390.7216
574.6452
691.4026
693.0318
751.3527
0.099904 0.403758 0.062482
376.4605
404.9671
574.6441
661.2766
713.1437
767.4593
0.099904 0.403758 0.124963
371.9456
428.1057
566.6126
626.2684
735.8973
794.2708
0.099904 0.403758 0.187445
377.095
455.0441
540.7175
593.3035
763.4284
812.2179
0.099904 0.403758 0.249926
397.5931
469.2171
513.3724
562.4564
788.8067
816.1072
0.099904 0.403758 -0.312408
434.4095
434.4095
532.1292
532.1292
807.2982
807.2982
0.099904 0.519117 0.0
413.1259
448.5785
598.9008
632.7386
719.5022
789.3024
0.099904 0.519117 0.062482
412.3725
451.6081
587.7181
632.8439
731.7198
797.8633
0.099904 0.519117 0.124963
407.9114
464.4484
561.5473
626.4835
759.674
817.5268
0.099904 0.519117 0.187445
403.8204
486.4899
526.6178
608.7778
790.6224
834.9029
0.099904 0.519117 0.249926
411.4391
478.5175
520.679
582.1972
816.5738
840.8236
0.099904 0.519117 -0.312408
438.2853
438.2853
551.2495
551.2495
834.0154
834.0154
0.199808 0.346078 0.0
372.2864
437.3191
561.0413
695.2879
701.0286
723.6715
0.199808 0.346078 0.062482
367.7188
443.8598
571.4832
653.1448
725.6629
739.4718
0.199808 0.346078 0.124963
361.551
460.3703
589.1521
606.9961
733.9424
771.9631
0.199808 0.346078 0.187445
365.0251
476.3844
564.1235
594.3708
750.7361
790.9067
0.199808 0.346078 0.249926
385.1281
463.7808
549.0478
583.8634
770.8692
795.1162
0.199808 0.346078 -0.312408
422.1765
422.1765
564.8599
564.8599
787.177
787.177
0.199808 0.461437 0.0
440.7658
497.5397
609.2081
632.5584
702.3484
772.5473
0.199808 0.461437 0.062482
430.0918
505.2089
601.366
632.065
720.9904
774.6666
0.199808 0.461437 0.124963
411.2671
515.646
575.3646
646.8799
749.3629
784.2877
0.199808 0.461437 0.187445
398.1369
499.0313
573.333
651.055
772.4489
799.1995
0.199808 0.461437 0.249926
399.7448
459.1981
594.3813
639.5189
791.6692
807.1802
0.199808 0.461437 -0.312408
421.5136
421.5136
618.7008
618.7008
804.1825
804.1825
0.199808 0.576797 0.0
479.8207
513.7962
591.8274
637.6337
695.2272
787.9666
0.199808 0.576797 0.062482
462.7426
529.5668
568.5421
657.5345
707.4848
789.6815
0.199808 0.576797 0.124963
437.18
531.701
554.4434
676.5776
736.5475
796.9175
0.199808 0.576797 0.187445
416.5648
492.1402
581.4715
675.9604
768.2973
807.9695
0.199808 0.576797 0.249926
409.0865
452.6847
609.6406
660.3772
793.5511
813.7159
0.199808 0.576797 -0.312408
421.7162
421.7162
636.872
636.872
809.0173
809.0173
0.299712 0.519117 0.0
497.4113
568.7891
584.711
638.2833
676.2192
784.0824
0.299712 0.519117 0.062482
483.526
545.9305
596.7401
656.1101
694.5081
780.7761
0.299712 0.519117 0.124963
456.2364
510.168
614.3109
689.8317
729.5528
773.0321
0.299712 0.519117 0.187445
430.4486
472.8138
637.0209
711.5332
759.8394
769.1802
0.299712 0.519117 0.249926
414.9365
439.0599
662.6168
706.811
776.4235
777.5059
0.299712 0.519117 -0.312408
417.3799
417.3799
687.329
687.329
782.0947
782.0947
P	=	7000.09	V	=	74.28444	E	=	-654.59251066
0.0 0.0 0.0
0.0
0.0
0.0
467.1915
467.1915
923.0535
0.0 0.0 0.06246
71.3688
71.3688
163.5962
462.0914
462.0914
911.6089
0.0 0.0 0.12492
139.4587
139.4587
320.8679
445.6981
445.6981
879.5521
0.0 0.0 0.18738
203.2769
203.277
416.1926
416.1926
464.75
831.3443
0.0 0.0 0.24984
263.8595
263.8595
373.7458
373.7458
588.708
768.9075
0.0 0.0 -0.3123
321.5236
321.5236
321.5236
321.5236
689.5342
689.5342
0.0 0.115383 0.0
126.436
141.09
293.6583
488.5401
524.7385
904.354
0.0 0.115383 0.06246
158.9417
161.2977
325.0889
483.6925
519.3278
894.8495
0.0 0.115383 0.12492
200.8618
220.0989
408.3117
468.2895
502.1367
867.9481
0.0 0.115383 0.18738
251.3343
275.301
440.9789
471.5689
513.4797
826.6676
0.0 0.115383 0.24984
303.6371
328.0462
402.2006
429.5798
615.0606
772.0317
0.0 0.115383 -0.3123
355.0183
355.0183
380.105
380.105
702.1335
702.1335
0.0 0.230766 0.0
244.6312
258.3364
531.6249
535.0019
644.0836
852.6516
0.0 0.230766 0.06246
258.5003
269.4649
530.633
547.3149
635.7743
850.2586
0.0 0.230766 0.12492
294.8334
298.5452
517.0668
584.7519
614.5515
841.7136
0.0 0.230766 0.18738
337.3765
343.7799
493.7048
565.7428
647.43
824.0125
0.0 0.230766 0.24984
379.8173
398.8209
461.2474
514.5256
702.9288
794.7539
0.0 0.230766 -0.3123
422.1729
422.1729
456.8996
456.8996
753.6739
753.6739
0.0 0.346148 0.0
336.8876
348.737
577.796
681.2277
754.9279
780.0147
0.0 0.346148 0.06246
345.9114
353.1082
573.8052
686.5584
728.7419
806.7925
0.0 0.346148 0.12492
366.67
370.1359
561.5665
661.7355
735.0746
833.8868
0.0 0.346148 0.18738
391.5551
403.5388
540.8168
608.8837
768.4833
846.9081
0.0 0.346148 0.24984
431.0806
440.7382
512.2787
547.5739
801.4552
844.0511
0.0 0.346148 -0.3123
477.9901
477.9901
485.226
485.226
827.7263
827.7263
0.0 0.461531 0.0
376.5462
433.1802
603.2183
705.2969
753.071
821.8801
0.0 0.461531 0.06246
384.5541
432.306
599.4417
687.526
767.4167
835.7537
0.0 0.461531 0.12492
406.3524
430.9551
587.8007
650.6715
796.9694
862.2833
0.0 0.461531 0.18738
434.6909
437.06
567.9316
602.8008
829.7173
882.0345
0.0 0.461531 0.24984
453.3361
471.9923
540.4828
547.0381
858.0418
887.1454
0.0 0.461531 -0.3123
492.824
492.824
507.5234
507.5234
878.0957
878.0957
0.0 -0.576914 0.0
387.619
473.6297
611.0884
666.2083
773.6034
841.9042
0.0 -0.576914 0.06246
395.2778
469.7789
607.3809
657.4874
785.0963
853.069
0.0 -0.576914 0.12492
416.2451
460.9023
595.8842
632.5896
813.2502
876.8912
0.0 -0.576914 0.18738
446.0799
454.8636
576.1123
593.0149
845.8619
896.522
0.0 -0.576914 0.24984
463.5565
480.4251
543.1526
548.6676
874.1495
902.4322
0.0 -0.576914 -0.3123
494.9384
494.9384
515.725
515.725
893.9778
893.9778
0.099924 0.173074 0.0
214.0255
248.2631
451.3498
546.681
601.6072
869.1034
0.099924 0.173074 0.06246
229.7221
259.6716
468.2918
545.2435
594.4715
863.9514
0.099924 0.173074 0.12492
269.2615
289.2251
496.9066
554.5536
572.6815
848.4941
0.099924 0.173074 0.18738
319.4338
328.1872
488.3996
536.5932
606.8233
822.3249
0.099924 0.173074 0.24984
369.799
371.6569
460.1208
489.8347
672.8974
784.4043
0.099924 0.173074 -0.3123
402.892
402.892
445.3027
445.3027
734.0861
734.0861
0.099924 0.288457 0.0
313.2587
349.6703
547.9645
658.6124
703.3794
806.5172
0.099924 0.288457 0.06246
316.0483
359.6379
552.9581
659.5956
692.2096
814.6424
0.099924 0.288457 0.12492
328.9482
384.5706
556.7327
638.849
695.7568
826.8032
0.099924 0.288457 0.18738
356.2477
416.6802
545.6595
593.3191
726.8442
829.4585
0.099924 0.288457 0.24984
397.1179
447.2163
519.9171
545.339
763.1077
818.4728
0.099924 0.288457 -0.3123
442.122
442.122
511.9013
511.9013
795.2068
795.2068
0.099924 0.40384 0.0
402.7608
409.5767
602.1265
728.7376
730.9421
792.362
0.099924 0.40384 0.06246
394.2446
424.3432
601.8051
696.566
752.2002
809.3611
0.099924 0.40384 0.12492
389.6955
448.3814
593.2505
658.7678
775.953
837.6671
0.099924 0.40384 0.18738
395.4859
476.3431
567.0485
622.8021
804.6811
856.572
0.099924 0.40384 0.24984
417.3924
491.343
539.075
589.6672
831.4241
860.5797
0.099924 0.40384 -0.3123
455.9905
455.9905
557.9035
557.9035
851.1085
851.1085
0.099924 0.519222 0.0
434.2849
469.2836
627.6502
666.5432
759.6011
833.8366
0.099924 0.519222 0.06246
432.902
473.3357
616.2324
665.8081
771.995
842.8324
0.099924 0.519222 0.12492
427.8698
487.692
588.9539
657.9837
800.6622
863.3723
0.099924 0.519222 0.18738
424.0143
510.7348
552.5999
638.7733
832.9413
881.3616
0.099924 0.519222 0.24984
432.4074
502.1258
546.8196
610.7728
860.5518
887.195
0.099924 0.519222 -0.3123
460.4735
460.4735
578.522
578.522
879.4904
879.4904
0.199849 0.346148 0.0
390.3058
457.7568
588.6773
730.9215
739.7778
763.3673
0.199849 0.346148 0.06246
385.4827
464.3744
599.1066
687.4504
765.5021
779.3234
0.199849 0.346148 0.12492
378.9455
481.2134
616.6873
638.7304
774.2844
813.7102
0.199849 0.346148 0.18738
382.7499
497.8103
593.6444
621.806
791.8446
833.7579
0.199849 0.346148 0.24984
404.2379
485.8874
576.5823
611.1793
812.835
838.2353
0.199849 0.346148 -0.3123
443.1989
443.1989
591.9755
591.9755
829.9078
829.9078
0.199849 0.461531 0.0
462.2665
522.0928
639.7699
667.0145
739.8511
814.9863
0.199849 0.461531 0.06246
451.0434
529.8695
632.1997
664.9322
759.6395
817.2265
0.199849 0.461531 0.12492
431.2882
540.2584
605.2909
678.792
789.674
827.2765
0.199849 0.461531 0.18738
417.8487
523.346
602.4621
682.6402
814.1006
842.7315
0.199849 0.461531 0.24984
420.136
482.3744
624.0414
670.7451
834.3791
850.9664
0.199849 0.461531 -0.3123
443.2321
443.2321
649.2735
649.2735
847.6728
847.6728
0.199849 0.576914 0.0
503.5746
539.9939
623.7158
669.1767
733.378
831.2384
0.199849 0.576914 0.06246
485.5994
556.5149
598.002
690.7114
745.8783
833.0694
0.199849 0.576914 0.12492
458.7823
558.3546
582.5104
710.4982
775.8067
840.7116
0.199849 0.576914 0.18738
437.553
516.6273
610.763
709.6308
808.988
852.1914
0.199849 0.576914 0.24984
430.2942
475.6872
640.3198
693.3569
835.8353
857.9468
0.199849 0.576914 -0.3123
443.6776
443.6776
668.8499
668.8499
852.5894
852.5894
0.299773 0.519222 0.0
523.1027
599.4742
614.649
671.666
711.789
826.0336
0.299773 0.519222 0.06246
508.1816
574.3085
627.6255
690.2649
731.1735
822.4153
0.299773 0.519222 0.12492
479.0681
535.9563
645.6272
725.2726
768.1289
814.0894
0.299773 0.519222 0.18738
452.1455
496.6946
669.196
747.5579
800.0567
810.1765
0.299773 0.519222 0.24984
436.5501
461.8456
696.1369
742.5787
817.8258
818.7895
0.299773 0.519222 -0.3123
439.4922
439.4922
722.1957
722.1957
823.7396
823.7396
P	=	7999.97	V	=	71.61674	E	=	-654.45669841
0.0 0.0 0.0
-0.0
0.0
0.0
484.981
484.981
968.5178
0.0 0.0 0.062437
73.1772
73.1772
170.8043
479.6208
479.6208
956.4135
0.0 0.0 0.124874
143.5816
143.5816
335.1218
462.5343
462.5343
922.4886
0.0 0.0 0.187311
210.2947
210.2947
432.0344
432.0344
485.6596
871.4467
0.0 0.0 0.249748
273.9052
273.9052
388.2564
388.2564
615.6271
805.3956
0.0 0.0 -0.312185
334.1487
334.1487
334.1487
334.1487
721.6499
721.6499
0.0 0.115406 0.0
133.0648
146.1991
307.1492
507.4295
545.2474
948.7599
0.0 0.115406 0.062437
164.2911
168.6792
339.801
502.28
539.5546
938.7435
0.0 0.115406 0.124874
207.3504
228.742
426.7689
486.0952
521.6298
910.3581
0.0 0.115406 0.187311
259.9947
285.7384
457.7295
489.9651
537.019
866.7363
0.0 0.115406 0.249748
314.9246
340.8798
417.6366
446.6305
643.639
808.9948
0.0 0.115406 -0.312185
368.6728
368.6728
395.298
395.298
735.2546
735.2546
0.0 0.230811 0.0
256.2471
268.1894
556.3622
556.3695
671.0606
894.1131
0.0 0.230811 0.062437
270.4508
279.4219
551.634
572.4369
662.3814
891.5978
0.0 0.230811 0.124874
307.6883
309.1516
537.1501
610.3461
641.1348
882.5611
0.0 0.230811 0.187311
349.5037
358.233
512.6509
589.1517
677.3326
863.7996
0.0 0.230811 0.249748
394.003
415.6228
478.9432
536.201
735.799
832.827
0.0 0.230811 -0.312185
438.3216
438.3216
476.3042
476.3042
789.3981
789.3981
0.0 0.346217 0.0
350.8104
363.5123
601.584
713.3456
789.6397
817.2468
0.0 0.346217 0.062437
359.9359
368.1323
597.2207
717.9629
763.0507
844.9247
0.0 0.346217 0.124874
382.3858
384.691
584.0593
691.0974
769.7544
873.2804
0.0 0.346217 0.187311
408.5635
419.2917
562.2047
635.9622
804.3316
886.9401
0.0 0.346217 0.249748
450.2002
458.1216
532.5372
572.1044
838.9739
883.9505
0.0 0.346217 -0.312185
496.9539
496.9539
507.0192
507.0192
866.7343
866.7343
0.0 0.461623 0.0
393.4236
450.2568
628.5218
738.0866
789.6578
862.1929
0.0 0.461623 0.062437
401.5655
449.6905
624.4229
719.3044
804.2274
876.5303
0.0 0.461623 0.124874
423.8862
449.0121
611.9773
680.2834
834.3727
904.0161
0.0 0.461623 0.187311
453.6505
455.6112
591.1359
629.9525
868.2898
924.4703
0.0 0.461623 0.249748
473.6902
491.8595
562.7035
571.7137
898.199
929.5835
0.0 0.461623 -0.312185
515.1557
515.1557
528.6641
528.6641
919.7075
919.7075
0.0 -0.577028 0.0
405.6212
491.9358
636.8725
696.752
811.8557
884.1012
0.0 -0.577028 0.062437
413.4309
488.4726
632.8748
687.3926
823.2051
895.6272
0.0 -0.577028 0.124874
434.9273
480.2824
620.6473
660.903
851.4959
920.1868
0.0 -0.577028 0.187311
465.7141
474.8718
599.9794
619.3056
885.1181
940.315
0.0 -0.577028 0.249748
484.4501
501.2477
567.3482
571.6219
915.0616
946.0295
0.0 -0.577028 -0.312185
517.2509
517.2509
537.692
537.692
936.5342
936.5342
0.099944 0.173109 0.0
224.5527
257.7532
471.0816
569.878
625.9069
911.5237
0.099944 0.173109 0.062437
240.5054
269.2424
488.2222
568.5481
618.4277
906.1204
0.099944 0.173109 0.124874
280.763
299.4178
516.2927
579.6375
595.7469
889.85
0.099944 0.173109 0.187311
332.3481
339.8967
507.0127
558.4336
634.9139
862.2079
0.099944 0.173109 0.249748
383.5128
386.5988
477.9706
510.1407
704.445
822.1192
0.099944 0.173109 -0.312185
418.244
418.244
463.791
463.791
768.9745
768.9745
0.099944 0.288514 0.0
327.2865
363.6038
570.5655
688.957
734.5581
845.4291
0.099944 0.288514 0.062437
330.0105
373.7321
575.2795
689.2627
723.6921
853.7657
0.099944 0.288514 0.124874
343.0389
399.2364
578.5071
666.4054
728.5948
866.2989
0.099944 0.288514 0.187311
371.2231
432.5243
567.0083
619.0158
760.9807
868.9555
0.099944 0.288514 0.249748
413.823
464.472
541.3396
568.636
799.0172
857.3461
0.099944 0.288514 -0.312185
460.2163
460.2163
533.4203
533.4203
832.8279
832.8279
0.099944 0.40392 0.0
419.4988
426.9593
627.3359
763.1245
765.5697
830.3771
0.099944 0.40392 0.062437
410.6949
442.1424
626.6578
728.8572
788.1623
847.9421
0.099944 0.40392 0.124874
406.0134
466.8997
617.5287
688.4938
812.7355
877.4081
0.099944 0.40392 0.187311
412.3166
495.8436
591.0342
649.8414
842.483
897.1594
0.099944 0.40392 0.249748
435.5454
511.7148
562.6305
614.7043
870.5067
901.3416
0.099944 0.40392 -0.312185
475.8306
475.8306
581.6833
581.6833
891.312
891.312
0.099944 0.519326 0.0
453.7386
488.2507
654.1812
697.5356
796.6609
875.0779
0.099944 0.519326 0.062437
451.7068
493.2057
642.4736
696.0794
809.0764
884.3832
0.099944 0.519326 0.124874
446.0629
508.8523
614.1408
686.8925
838.1486
905.5744
0.099944 0.519326 0.187311
442.3577
532.8892
576.4656
666.3145
871.5282
924.0404
0.099944 0.519326 0.249748
451.5328
523.8825
570.8173
637.0907
900.7185
929.7534
0.099944 0.519326 -0.312185
480.8529
480.8529
603.6749
603.6749
921.1511
921.1511
0.199888 0.346217 0.0
407.1922
476.5678
613.7589
763.5972
775.222
800.3822
0.199888 0.346217 0.062437
402.1015
483.1737
624.0595
718.8866
802.5781
815.7385
0.199888 0.346217 0.124874
395.0966
500.2032
641.4176
667.8019
811.668
851.7723
0.199888 0.346217 0.187311
399.0632
517.3719
620.6782
646.5225
829.8035
872.8649
0.199888 0.346217 0.249748
421.7722
506.1097
601.9138
636.0496
851.5067
877.7235
0.199888 0.346217 -0.312185
462.4752
462.4752
616.8932
616.8932
869.1876
869.1876
0.199888 0.461623 0.0
482.3172
544.5706
667.7162
698.7402
774.3763
854.4203
0.199888 0.461623 0.062437
470.5314
552.4136
660.4102
695.0787
795.1188
856.6964
0.199888 0.461623 0.124874
449.7715
562.7868
632.6527
707.7807
826.6094
866.9262
0.199888 0.461623 0.187311
435.9037
545.667
629.014
711.3356
852.2719
882.6974
0.199888 0.461623 0.249748
438.7673
503.6143
651.1979
699.2726
873.5398
891.1295
0.199888 0.461623 -0.312185
463.1015
463.1015
677.3162
677.3162
887.5681
887.5681
0.199888 0.577028 0.0
525.6437
563.9241
653.2351
698.2109
768.5067
871.3482
0.199888 0.577028 0.062437
506.7681
581.0891
625.265
721.1732
781.1305
873.23
0.199888 0.577028 0.124874
478.6485
582.9838
608.023
741.5199
811.6702
881.1091
0.199888 0.577028 0.187311
456.7066
539.1676
637.4344
740.4252
846.0811
892.856
0.199888 0.577028 0.249748
449.6097
496.7779
668.3974
723.5963
874.4471
898.5423
0.199888 0.577028 -0.312185
463.7375
463.7375
698.2043
698.2043
892.494
892.494
0.299833 0.519326 0.0
547.1435
628.019
641.9412
702.3669
744.5199
864.8943
0.299833 0.519326 0.062437
531.1965
600.6404
655.7699
721.5849
764.8438
860.9465
0.299833 0.519326 0.124874
500.2183
559.8133
674.0517
757.6073
803.417
852.0008
0.299833 0.519326 0.187311
472.0551
518.6394
698.4414
780.4065
836.7871
847.9118
0.299833 0.519326 0.249748
456.2699
482.6657
726.7542
775.3235
855.7949
856.5275
0.299833 0.519326 -0.312185
459.6472
459.6472
754.1485
754.1485
861.866
861.866
P	=	8999.98	V	=	69.28853	E	=	-654.32232373
0.0 0.0 0.0
-0.0
-0.0
0.0
501.5743
501.5743
1010.7879
0.0 0.0 0.062415
74.5062
74.5062
177.5738
495.9196
495.9196
998.0763
0.0 0.0 0.124831
146.9342
146.9342
348.401
478.0909
478.0909
962.3988
0.0 0.0 0.187246
216.4606
216.4606
446.6304
446.6304
504.9742
908.6333
0.0 0.0 0.249661
283.0868
283.0868
401.6603
401.6603
640.3713
839.0813
0.0 0.0 -0.312076
345.8276
345.8276
345.8276
345.8276
751.1801
751.1801
0.0 0.115423 0.0
139.3263
151.0376
319.4521
524.9854
564.1871
990.0979
0.0 0.115423 0.062415
169.2007
175.5815
353.2984
519.4915
558.2037
979.5974
0.0 0.115423 0.124831
213.1426
236.5939
443.8949
502.461
539.5474
949.7935
0.0 0.115423 0.187246
267.835
295.1448
473.0735
506.8614
558.8831
903.9145
0.0 0.115423 0.249661
325.3236
352.5557
431.8324
462.2911
670.1065
843.2024
0.0 0.115423 -0.312076
381.2979
381.2979
409.2277
409.2277
765.8733
765.8733
0.0 0.230846 0.0
267.2152
277.3752
576.1509
578.9892
695.772
932.8189
0.0 0.230846 0.062415
281.7085
288.6245
571.0012
595.4807
686.7482
930.1388
0.0 0.230846 0.124831
318.8502
319.7114
555.5294
633.9159
665.5353
920.5385
0.0 0.230846 0.187246
360.6342
371.6314
529.9343
610.6421
705.0202
900.7153
0.0 0.230846 0.249661
407.1218
431.1041
495.1694
556.0869
766.3386
868.1471
0.0 0.230846 -0.312076
453.2426
453.2426
494.1297
494.1297
822.5778
822.5778
0.0 0.346269 0.0
363.655
377.4396
623.5607
742.8644
821.4814
852.079
0.0 0.346269 0.062415
372.8159
382.2238
618.7876
746.8995
794.6087
880.3341
0.0 0.346269 0.124831
397.0183
397.9869
604.656
718.1655
801.6294
909.7159
0.0 0.346269 0.187246
424.378
433.7331
581.7546
660.8545
837.4101
923.9199
0.0 0.346269 0.249661
467.9852
474.167
551.143
594.7068
873.6952
920.8494
0.0 0.346269 -0.312076
514.4699
514.4699
527.2147
527.2147
902.8572
902.8572
0.0 0.461692 0.0
408.9712
466.3384
651.8219
768.7469
823.4714
899.2847
0.0 0.461692 0.062415
417.1926
465.9366
647.3737
748.849
838.1998
914.0584
0.0 0.461692 0.124831
439.9429
465.6817
634.0982
707.5507
868.805
942.3941
0.0 0.461692 0.187246
471.116
472.6476
612.3565
654.8285
903.8071
963.5037
0.0 0.461692 0.249661
492.5397
510.1983
583.1204
594.403
935.2549
968.7048
0.0 0.461692 -0.312076
535.8307
535.8307
548.186
548.186
958.1351
958.1351
0.0 -0.577115 0.0
422.2222
509.1975
660.5658
725.2565
847.2848
922.9865
0.0 -0.577115 0.062415
430.1342
505.9505
656.2542
715.1355
858.4297
934.8052
0.0 -0.577115 0.124831
452.0764
498.1503
643.2777
686.8684
886.7156
959.9659
0.0 -0.577115 0.187246
483.7798
493.2455
621.7914
643.2756
921.2372
980.5511
0.0 -0.577115 0.249661
503.7346
520.4823
589.5095
592.7034
952.7781
986.1815
0.0 -0.577115 -0.312076
537.8476
537.8476
557.9743
557.9743
975.8015
975.8015
0.099959 0.173134 0.0
234.5016
266.4974
489.2207
591.2125
648.2558
951.0952
0.099959 0.173134 0.062415
250.6798
277.981
506.581
589.9289
640.457
945.4235
0.099959 0.173134 0.124831
291.5168
308.628
534.1416
602.6751
616.9518
928.3164
0.099959 0.173134 0.187246
344.2852
350.5427
523.9942
578.5113
660.9659
899.2325
0.099959 0.173134 0.249661
396.1117
400.3375
494.2904
528.8046
733.7773
857.1112
0.099959 0.173134 -0.312076
432.3727
432.3727
480.7687
480.7687
801.3775
801.3775
0.099959 0.288557 0.0
340.5499
376.279
591.4383
716.7804
763.2323
881.8283
0.099959 0.288557 0.062415
343.1686
386.5072
595.8588
716.5096
752.6359
890.2627
0.099959 0.288557 0.124831
356.2534
412.4666
598.4696
691.849
758.7429
902.9925
0.099959 0.288557 0.187246
385.2142
446.8727
586.5142
642.6983
792.5141
905.5788
0.099959 0.288557 0.249661
429.3422
480.2207
560.9744
590.1466
832.3135
893.4
0.099959 0.288557 -0.312076
476.8546
476.8546
553.291
553.291
867.7443
867.7443
0.099959 0.40398 0.0
435.3226
442.7973
650.545
794.9083
798.0126
865.3122
0.099959 0.40398 0.062415
426.0815
458.4079
649.5081
758.8891
821.3889
883.5164
0.099959 0.40398 0.124831
421.1969
483.7049
639.7883
715.9593
846.6301
914.0748
0.099959 0.40398 0.187246
427.9428
513.5379
613.0285
674.7103
877.3533
934.6031
0.099959 0.40398 0.249661
452.3845
530.2657
584.3746
637.7314
906.6224
938.9905
0.099959 0.40398 -0.312076
494.1151
494.1151
603.61
603.61
928.4842
928.4842
0.099959 0.519403 0.0
471.5672
506.1979
678.5527
726.5517
831.0185
913.0394
0.099959 0.519403 0.062415
469.0482
511.7315
666.6051
724.2092
843.4041
922.6132
0.099959 0.519403 0.124831
462.8941
528.2623
637.2532
713.4618
872.7467
944.3632
0.099959 0.519403 0.187246
459.2702
553.1481
598.3152
691.526
907.0964
963.2677
0.099959 0.519403 0.249661
469.1526
543.7413
592.9191
661.243
937.7649
968.9387
0.099959 0.519403 -0.312076
499.5716
499.5716
626.8336
626.8336
959.5747
959.5747
0.199918 0.346269 0.0
423.2168
493.4576
636.9162
793.9003
808.4711
834.3299
0.199918 0.346269 0.062415
417.8147
500.0106
647.0728
748.1466
836.5855
849.691
0.199918 0.346269 0.124831
410.2706
517.1532
664.1395
694.7956
846.0026
887.135
0.199918 0.346269 0.187246
414.3136
534.8726
645.7065
669.1445
864.7769
909.1274
0.199918 0.346269 0.249661
438.0624
524.4246
625.2656
658.8085
887.25
914.316
0.199918 0.346269 -0.312076
480.198
480.198
639.7498
639.7498
905.5613
905.5613
0.199918 0.461692 0.0
501.3873
564.9712
693.4244
728.587
806.4634
890.6411
0.199918 0.461692 0.062415
488.9693
572.873
686.5354
723.1501
828.0929
892.9608
0.199918 0.461692 0.124831
467.1038
583.2011
658.0337
734.4696
860.805
903.4179
0.199918 0.461692 0.187246
452.676
565.9424
653.4353
737.6248
887.5057
919.5391
0.199918 0.461692 0.249661
455.922
522.9425
676.0612
725.358
909.6659
928.1691
0.199918 0.461692 -0.312076
481.2598
481.2598
702.9594
702.9594
924.3682
924.3682
0.199918 0.577115 0.0
546.6466
585.8307
681.0372
724.8825
801.1281
908.1962
0.199918 0.577115 0.062415
526.7524
603.6837
650.7238
749.2843
813.8533
910.1215
0.199918 0.577115 0.124831
497.2392
605.7949
631.4613
770.0392
844.8985
918.2121
0.199918 0.577115 0.187246
474.4326
559.84
661.8992
768.6272
880.3567
930.2036
0.199918 0.577115 0.249661
467.3003
515.9846
694.1081
751.2442
910.0431
935.8492
0.199918 0.577115 -0.312076
481.9971
481.9971
725.0481
725.0481
929.2147
929.2147
0.299878 0.519403 0.0
570.0303
655.0351
666.9854
730.6841
774.8308
900.521
0.299878 0.519403 0.062415
553.0133
625.3153
681.7777
750.5179
796.0617
896.265
0.299878 0.519403 0.124831
520.09
582.0277
700.2566
787.4544
836.1
886.74
0.299878 0.519403 0.187246
490.5165
538.8462
725.3039
810.5635
870.7099
882.5253
0.299878 0.519403 0.249661
474.2921
501.6203
754.7427
805.2034
890.685
891.2873
0.299878 0.519403 -0.312076
477.9273
477.9273
783.2717
783.2717
896.9269
896.9269
P	=	10000.02	V	=	67.22729	E	=	-654.18932982
0.0 0.0 0.0
-0.0
0.0
0.0
516.8175
516.8175
1050.1179
0.0 0.0 0.062392
75.4868
75.4868
183.8415
510.8699
510.8699
1036.8539
0.0 0.0 0.124784
149.7262
149.7262
360.7604
492.3329
492.3329
999.5925
0.0 0.0 0.187176
221.99
221.99
460.0267
460.0267
523.0547
943.3793
0.0 0.0 0.249569
291.5801
291.5801
414.0562
414.0562
663.62
870.6634
0.0 0.0 -0.311961
356.6944
356.6944
356.6944
356.6944
778.9345
778.9345
0.0 0.115439 0.0
145.4116
155.7086
330.9095
541.1873
581.5843
1028.6485
0.0 0.115439 0.062392
173.8047
182.1582
365.8206
535.341
575.3142
1017.6874
0.0 0.115439 0.124784
218.4124
243.882
459.8193
517.4786
555.9642
986.5669
0.0 0.115439 0.187176
275.0392
303.8202
487.1702
522.3763
579.3656
938.6574
0.0 0.115439 0.249569
335.013
363.3822
444.9739
476.7536
695.0326
875.3022
0.0 0.115439 -0.311961
393.0758
393.0758
422.1572
422.1572
794.7114
794.7114
0.0 0.230879 0.0
277.8286
286.2099
594.4864
600.1278
718.5292
969.1038
0.0 0.230879 0.062392
292.5049
297.3902
588.9023
616.9619
709.1885
966.1955
0.0 0.230879 0.124784
327.9508
331.1115
572.431
655.6846
688.1838
955.955
0.0 0.230879 0.187176
371.0546
384.3166
545.8261
630.4507
730.9045
935.1519
0.0 0.230879 0.249569
419.4388
445.7505
510.205
574.5588
795.0249
901.2305
0.0 0.230879 -0.311961
467.202
467.202
510.8681
510.8681
853.77
853.77
0.0 0.346318 0.0
375.8948
390.8006
643.8846
770.3854
851.1081
884.8791
0.0 0.346318 0.062392
385.0314
395.6497
638.6844
773.7528
824.1821
913.4062
0.0 0.346318 0.124784
410.5016
410.8463
623.5796
743.2359
831.4384
943.5581
0.0 0.346318 0.187176
439.3855
447.302
599.7292
683.9718
868.311
958.2559
0.0 0.346318 0.249569
484.9695
489.2496
568.3852
615.9059
906.1768
955.2369
0.0 0.346318 -0.311961
530.8588
530.8588
546.4027
546.4027
936.6391
936.6391
0.0 0.461757 0.0
423.6159
481.6301
673.2706
797.6481
854.956
934.0768
0.0 0.461757 0.062392
431.8782
481.2741
668.4699
776.5837
869.8238
949.1765
0.0 0.461757 0.124784
454.9841
481.2557
654.3917
733.0105
900.7782
978.1719
0.0 0.461757 0.187176
487.4728
488.6121
631.8698
678.0592
936.7887
999.8553
0.0 0.461757 0.249569
510.3888
527.3989
602.0405
615.765
969.7688
1005.1941
0.0 0.461757 -0.311961
555.46
555.46
566.4285
566.4285
994.0033
994.0033
0.0 -0.577197 0.0
437.7747
525.5645
682.3306
752.1001
880.2836
959.5492
0.0 -0.577197 0.062392
445.7595
522.3867
677.7096
741.2005
891.1678
971.5679
0.0 -0.577197 0.124784
468.0935
514.7362
664.0271
711.1623
919.3306
997.1586
0.0 -0.577197 0.187176
500.6764
510.299
641.8519
665.7127
954.6891
1018.113
0.0 -0.577197 0.249569
521.8547
538.4985
610.3944
612.2392
987.8512
1023.6797
0.0 -0.577197 -0.311961
557.344
557.344
576.9136
576.9136
1012.4475
1012.4475
0.099973 0.173159 0.0
244.1469
274.8177
506.1312
611.0394
668.8125
988.1373
0.099973 0.173159 0.062392
260.4544
286.2094
523.6157
609.7866
660.71
982.1634
0.099973 0.173159 0.124784
301.7178
317.1721
550.5538
624.1161
636.4408
964.2013
0.099973 0.173159 0.187176
355.5632
360.4292
539.5881
597.0114
685.3384
933.8062
0.099973 0.173159 0.249569
407.8921
413.2905
509.3893
546.118
761.3709
889.9293
0.099973 0.173159 -0.311961
445.6042
445.6042
496.6173
496.6173
831.8852
831.8852
0.099973 0.288598 0.0
353.3311
388.2667
610.7632
742.7103
789.886
916.0661
0.099973 0.288598 0.062392
355.7679
398.5301
614.8303
741.7716
779.6789
924.4463
0.099973 0.288598 0.124784
368.8172
424.8249
616.7525
715.3599
786.9571
937.1599
0.099973 0.288598 0.187176
398.5638
460.2892
604.4015
664.642
822.0319
939.6543
0.099973 0.288598 0.249569
444.1839
495.0231
579.1591
610.278
863.5331
927.0704
0.099973 0.288598 -0.311961
492.5963
492.5963
571.9548
571.9548
900.4716
900.4716
0.099973 0.404038 0.0
450.4408
457.7089
671.9263
824.5077
828.6121
898.0723
0.099973 0.404038 0.062392
440.6694
473.7014
670.5063
786.9446
852.5258
916.7652
0.099973 0.404038 0.124784
435.506
499.4142
660.18
741.4945
878.3037
948.1869
0.099973 0.404038 0.187176
442.7526
530.1078
633.2677
697.8097
909.8991
969.408
0.099973 0.404038 0.249569
468.5051
547.7573
604.6563
659.2028
940.3625
974.0781
0.099973 0.404038 -0.311961
511.5609
511.5609
624.1535
624.1535
963.2131
963.2131
0.099973 0.519477 0.0
488.2871
523.2495
700.9647
753.9132
863.0468
948.7454
0.099973 0.519477 0.062392
485.3155
529.1609
688.8287
750.5789
875.3485
958.4999
0.099973 0.519477 0.124784
478.6274
546.3425
658.5873
738.1391
904.8375
980.6362
0.099973 0.519477 0.187176
475.1351
572.0411
618.6068
714.879
940.0842
999.8847
0.099973 0.519477 0.249569
485.9021
562.493
613.5587
683.7028
972.2441
1005.5335
0.099973 0.519477 -0.311961
517.4394
517.4394
648.4684
648.4684
995.4452
995.4452
0.199947 0.346318 0.0
438.5708
509.2578
658.3062
821.9733
839.8412
866.3245
0.199947 0.346318 0.062392
432.7957
515.7091
668.226
775.418
868.6123
881.3953
0.199947 0.346318 0.124784
424.6594
532.8942
684.8719
719.8844
878.2781
919.9749
0.199947 0.346318 0.187176
428.8917
551.1878
668.9951
689.8321
897.5928
942.7809
0.199947 0.346318 0.249569
453.8075
541.7021
647.1392
679.8571
920.7508
948.3992
0.199947 0.346318 -0.311961
497.23
497.23
661.1089
661.1089
939.581
939.581
0.199947 0.461757 0.0
519.5569
584.0511
717.2041
756.786
836.3569
924.7528
0.199947 0.461757 0.062392
506.4344
591.9624
710.736
749.4013
858.8231
927.0633
0.199947 0.461757 0.124784
483.4079
602.1902
681.5901
759.0469
892.6424
937.5838
0.199947 0.461757 0.187176
468.586
584.8964
676.1337
761.8161
920.3422
953.9072
0.199947 0.461757 0.249569
472.4927
541.3457
699.2536
749.5343
943.3944
962.7381
0.199947 0.461757 -0.311961
498.8472
498.8472
726.8747
726.8747
958.7543
958.7543
0.199947 0.577197 0.0
566.6124
606.3573
707.3083
749.5639
831.6158
942.8458
0.199947 0.577197 0.062392
545.6151
624.8138
674.5697
775.3755
844.3673
944.7638
0.199947 0.577197 0.124784
514.649
627.0525
653.2565
796.3924
875.7619
952.9422
0.199947 0.577197 0.187176
491.1525
579.2261
684.6336
794.6879
912.1774
965.0906
0.199947 0.577197 0.249569
484.332
534.3531
718.0696
776.9125
943.1987
970.708
0.199947 0.577197 -0.311961
499.7182
499.7182
750.0741
750.0741
963.5176
963.5176
0.29992 0.519477 0.0
591.7723
680.6118
690.3844
757.1808
803.1496
933.9293
0.29992 0.519477 0.062392
573.6221
648.4799
706.0745
777.5172
825.2009
929.3365
0.29992 0.519477 0.124784
538.7265
602.7724
724.573
815.1434
866.5051
919.1939
0.29992 0.519477 0.187176
507.9857
557.8554
750.2103
838.4807
902.2492
914.8479
0.29992 0.519477 0.249569
491.748
519.8652
780.779
832.9626
923.294
923.7006
0.29992 0.519477 -0.311961
495.8098
495.8098
810.4041
810.4041
929.7034
929.7034
P	=	11000.34	V	=	65.38143	E	=	-654.05766794
0.0 0.0 0.0
-0.0
-0.0
0.0
531.0351
531.0351
1087.0672
0.0 0.0 0.062369
76.4692
76.4692
189.7192
524.8656
524.8656
1073.3184
0.0 0.0 0.124739
152.4232
152.4232
372.3847
505.773
505.773
1034.6551
0.0 0.0 0.187108
227.22
227.22
472.7406
472.7406
540.1227
976.2361
0.0 0.0 0.249478
299.564
299.564
425.8086
425.8086
685.6357
900.5996
0.0 0.0 -0.311847
366.9412
366.9412
366.9412
366.9412
805.2576
805.2576
0.0 0.115454 0.0
151.0536
160.247
341.7294
556.3258
597.8559
1064.9162
0.0 0.115454 0.062369
178.2968
188.3049
377.6563
550.1934
591.3583
1053.5515
0.0 0.115454 0.124739
223.5256
250.7426
474.8819
531.6436
571.4495
1021.2641
0.0 0.115454 0.187108
281.9222
312.0069
500.5332
537.0898
598.7526
971.5177
0.0 0.115454 0.249478
344.1852
373.6156
457.4333
490.4892
718.6484
905.7141
0.0 0.115454 -0.311847
404.2151
404.2151
434.4121
434.4121
822.0471
822.0471
0.0 0.230909 0.0
287.7613
294.7286
611.7305
620.0987
739.955
1003.362
0.0 0.230909 0.062369
302.694
305.8619
605.7657
637.2558
730.342
1000.2472
0.0 0.230909 0.124739
336.7546
341.9921
588.4137
676.2041
709.6642
989.4196
0.0 0.230909 0.187108
381.0784
396.4547
560.9051
649.2619
755.4055
967.7046
0.0 0.230909 0.249478
431.2034
459.7451
524.4932
592.1551
822.1875
932.5168
0.0 0.230909 -0.311847
480.4837
480.4837
526.8408
526.8408
883.2871
883.2871
0.0 0.346363 0.0
387.6601
403.4553
663.1556
796.4067
879.1887
915.9861
0.0 0.346363 0.062369
396.7952
408.4396
657.5694
799.1671
852.2137
944.7366
0.0 0.346363 0.124739
422.582
424.1479
641.5835
767.0473
859.6528
975.5617
0.0 0.346363 0.187108
453.8589
460.3824
616.8708
705.9586
897.5656
990.6937
0.0 0.346363 0.249478
501.2778
503.7331
584.8568
636.1007
936.9163
987.7226
0.0 0.346363 -0.311847
546.5452
546.5452
564.7351
564.7351
968.5784
968.5784
0.0 0.461818 0.0
437.7266
496.2412
693.7131
825.1757
884.8139
967.1369
0.0 0.461818 0.062369
446.043
495.9364
688.597
803.0072
899.8209
982.5177
0.0 0.461818 0.124739
469.5109
496.1596
673.7999
757.2724
931.1037
1012.0805
0.0 0.461818 0.187108
503.1222
504.0194
650.5773
700.188
968.0447
1034.2538
0.0 0.461818 0.249478
527.4284
543.9638
620.2075
636.1041
1002.437
1039.6948
0.0 0.461818 -0.311847
574.1598
574.1598
583.9654
583.9654
1027.9215
1027.9215
0.0 -0.577272 0.0
452.7907
541.2426
703.1044
777.724
911.6151
994.3203
0.0 -0.577272 0.062369
460.8536
538.0836
698.2119
766.0942
922.2691
1006.5001
0.0 -0.577272 0.124739
483.5728
530.497
683.9091
734.3788
950.3202
1032.4362
0.0 -0.577272 0.187108
516.9902
526.4628
661.1251
687.1436
986.4316
1053.6776
0.0 -0.577272 0.249478
539.0378
555.8649
630.3042
631.0361
1021.0686
1059.1457
0.0 -0.577272 -0.311847
575.8777
575.8777
595.1498
595.1498
1047.11
1047.11
0.099986 0.173182 0.0
253.1478
282.7931
522.056
629.6855
688.1508
1023.0713
0.099986 0.173182 0.062369
269.6586
294.1022
539.6462
628.5088
679.7964
1016.8288
0.099986 0.173182 0.124739
311.4421
325.3533
566.0061
644.4107
654.8903
998.0971
0.099986 0.173182 0.187108
366.3572
369.8414
554.3172
614.6133
708.4286
966.4988
0.099986 0.173182 0.249478
419.0544
425.6782
523.6708
562.643
787.515
920.9856
0.099986 0.173182 -0.311847
458.161
458.161
511.7179
511.7179
860.7736
860.7736
0.099986 0.288636 0.0
365.3888
399.6636
628.9704
767.1999
815.1495
948.4795
0.099986 0.288636 0.062369
367.7443
409.966
632.7051
765.6567
805.3234
956.7974
0.099986 0.288636 0.124739
380.9229
436.5846
634.0013
737.7064
813.6776
969.4683
0.099986 0.288636 0.187108
411.4909
473.0422
621.3286
685.5462
850.0126
971.8579
0.099986 0.288636 0.249478
458.4776
509.0772
596.4227
629.5107
893.1115
958.898
0.099986 0.288636 -0.311847
507.6061
507.6061
589.7683
589.7683
931.4393
931.4393
0.099986 0.40409 0.0
464.8485
471.8923
692.1828
852.5918
857.6992
929.1274
0.099986 0.40409 0.062369
454.6158
488.2599
690.4112
813.6088
882.0566
948.2936
0.099986 0.40409 0.124739
449.2854
514.3846
679.5384
765.7609
908.3486
980.5015
0.099986 0.40409 0.187108
457.0713
545.9002
652.5102
719.786
940.7607
1002.3369
0.099986 0.40409 0.249478
484.0377
564.4137
624.0003
679.6609
972.3173
1007.2571
0.099986 0.40409 -0.311847
528.2504
528.2504
643.7519
643.7519
996.0666
996.0666
0.099986 0.519545 0.0
504.252
539.5752
722.2751
780.0076
893.4638
982.6075
0.099986 0.519545 0.062369
500.8794
545.7932
709.9748
775.7061
905.7035
992.5409
0.099986 0.519545 0.124739
493.6876
563.5685
678.9255
761.6287
935.3345
1015.0288
0.099986 0.519545 0.187108
490.3171
590.0642
637.9657
737.1331
971.3878
1034.5589
0.099986 0.519545 0.249478
501.9387
580.4108
633.248
705.1343
1004.8982
1040.1502
0.099986 0.519545 -0.311847
534.5352
534.5352
669.1165
669.1165
1029.3757
1029.3757
0.199973 0.346363 0.0
453.1865
524.1191
678.4702
848.725
869.632
896.5353
0.199973 0.346363 0.062369
447.1099
530.477
688.148
801.3636
898.9073
911.5194
0.199973 0.346363 0.124739
438.5352
547.7092
704.3798
743.7715
908.9044
951.1024
0.199973 0.346363 0.187108
443.0452
566.5598
691.188
709.3383
928.7625
974.6292
0.199973 0.346363 0.249478
469.0416
558.0523
667.9953
699.7827
952.5278
980.6433
0.199973 0.346363 -0.311847
513.5349
513.5349
681.4028
681.4028
971.7937
971.7937
0.199973 0.461818 0.0
536.936
602.0332
739.6567
783.6406
864.8345
956.9193
0.199973 0.461818 0.062369
523.1055
609.9771
733.5882
774.3524
888.0835
959.2974
0.199973 0.461818 0.124739
498.9765
620.128
703.9132
782.2752
922.9012
969.9879
0.199973 0.461818 0.187108
483.8667
602.8062
697.6808
784.698
951.5102
986.4935
0.199973 0.461818 0.249478
488.4682
558.8482
721.2626
772.4524
975.3563
995.4706
0.199973 0.461818 -0.311847
515.7259
515.7259
749.5639
749.5639
991.3045
991.3045
0.199973 0.577272 0.0
585.7199
625.766
732.3675
772.9398
860.5674
975.4882
0.199973 0.577272 0.062369
563.5662
644.8429
697.2185
800.1183
873.3751
977.474
0.199973 0.577272 0.124739
531.1483
647.1997
673.9335
821.3372
905.1117
985.8385
0.199973 0.577272 0.187108
507.0567
597.6223
706.2109
819.3945
942.3796
998.1364
0.199973 0.577272 0.249478
500.6626
551.8944
740.8057
801.2799
974.5992
1003.6916
0.199973 0.577272 -0.311847
516.7403
516.7403
773.8254
773.8254
995.9684
995.9684
0.299959 0.519545 0.0
612.5594
705.0095
712.4964
782.2193
830.053
965.2368
0.299959 0.519545 0.062369
593.2186
670.4119
729.1314
803.0674
852.9053
960.4197
0.299959 0.519545 0.124739
556.3492
622.3291
747.6572
841.3365
895.364
949.8872
0.299959 0.519545 0.187108
524.5878
575.8122
773.8394
864.8892
932.1178
945.5061
0.299959 0.519545 0.249478
508.5172
537.2821
805.4306
859.2505
954.1797
954.371
0.299959 0.519545 -0.311847
513.0326
513.0326
836.0813
836.0813
960.721
960.721
P	=	11999.84	V	=	63.71544	E	=	-653.92750142
0.0 0.0 0.0
-0.0
0.0
0.0
544.3069
544.3069
1121.9676
0.0 0.0 0.062346
77.6094
77.6094
195.4048
537.997
537.997
1107.8054
0.0 0.0 0.124692
155.2516
155.2516
383.5716
518.5198
518.5198
1067.9144
0.0 0.0 0.187038
232.3545
232.3545
484.8846
484.8846
556.4577
1007.4861
0.0 0.0 0.249385
307.183
307.183
437.0196
437.0196
706.6293
929.1035
0.0 0.0 -0.311731
376.6732
376.6732
376.6732
376.6732
830.327
830.327
0.0 0.115467 0.0
156.4947
164.5009
351.7857
570.4914
613.0805
1099.2081
0.0 0.115467 0.062346
182.6398
194.3111
388.7943
564.1586
606.4334
1087.5086
0.0 0.115467 0.124692
228.6021
257.4638
489.257
545.0968
586.1236
1054.2143
0.0 0.115467 0.187038
288.6311
319.8846
513.3003
551.09
617.2758
1002.7929
0.0 0.115467 0.249385
352.9367
383.2882
469.3077
503.5074
741.1527
934.6687
0.0 0.115467 -0.311731
414.785
414.785
445.9579
445.9579
848.0649
848.0649
0.0 0.230934 0.0
297.3369
302.7435
627.9414
638.7618
760.1385
1035.8545
0.0 0.230934 0.062346
312.6243
313.9368
621.6927
656.317
750.3386
1032.5802
0.0 0.230934 0.124692
345.2923
352.6902
603.653
695.6014
730.1441
1021.2576
0.0 0.230934 0.187038
390.762
408.2248
575.3523
667.1868
778.7138
998.6844
0.0 0.230934 0.249385
442.4236
473.0458
538.1312
608.8408
847.9905
962.2417
0.0 0.230934 -0.311731
493.0985
493.0985
541.9161
541.9161
911.2962
911.2962
0.0 0.346401 0.0
398.7528
415.6687
681.3645
820.9473
905.8205
945.6258
0.0 0.346401 0.062346
407.9721
420.8947
675.494
823.2552
878.8602
974.5572
0.0 0.346401 0.124692
434.1906
437.2505
658.8294
789.8443
886.4836
1006.0214
0.0 0.346401 0.187038
468.0159
472.9506
633.3689
727.0334
925.3976
1021.5267
0.0 0.346401 0.249385
516.9396
517.5601
600.6529
655.3632
966.0829
1018.5227
0.0 0.346401 -0.311731
561.5059
561.5059
582.1736
582.1736
998.8267
998.8267
0.0 0.461868 0.0
451.02
510.3986
713.1277
851.5049
913.2492
998.6133
0.0 0.461868 0.062346
459.4651
510.213
707.787
828.3155
928.4277
1014.3004
0.0 0.461868 0.124692
483.4087
510.7782
692.4532
780.5739
960.0715
1044.4372
0.0 0.461868 0.187038
518.4182
518.7983
668.635
721.4358
997.8553
1067.0276
0.0 0.461868 0.249385
543.8583
559.8186
637.696
655.5563
1033.4793
1072.4653
0.0 0.461868 -0.311731
592.0272
592.0272
600.7649
600.7649
1060.0896
1060.0896
0.0 -0.577334 0.0
466.9233
556.4873
722.8806
802.2466
941.5634
1027.4802
0.0 -0.577334 0.062346
475.1373
553.3779
717.7987
789.9433
952.0391
1039.8485
0.0 -0.577334 0.124692
498.3612
545.9027
703.0407
756.6702
980.0178
1066.1447
0.0 -0.577334 0.187038
532.6368
542.2074
679.744
707.722
1016.7731
1087.6048
0.0 -0.577334 0.249385
555.5967
572.5101
649.1539
649.3639
1052.6792
1092.8721
0.0 -0.577334 -0.311731
593.6074
593.6074
612.651
612.651
1080.0227
1080.0227
0.099997 0.1732 0.0
261.8232
290.2516
536.8589
647.2426
706.3229
1056.172
0.099997 0.1732 0.062346
278.6321
301.5878
554.6421
646.2131
697.8043
1049.7173
0.099997 0.1732 0.124692
321.0002
333.264
580.6526
663.7121
672.4322
1030.3338
0.099997 0.1732 0.187038
376.8018
378.9166
568.3672
631.3958
730.4217
997.6222
0.099997 0.1732 0.249385
429.6812
437.4272
537.2413
578.3132
812.3763
950.519
0.099997 0.1732 -0.311731
470.0464
470.0464
525.9615
525.9615
888.216
888.216
0.099997 0.288667 0.0
377.0088
410.3363
646.018
790.2877
839.098
979.3193
0.099997 0.288667 0.062346
379.3869
420.7786
649.5248
788.2621
829.6965
987.5864
0.099997 0.288667 0.124692
392.8313
447.8524
650.3932
759.0823
839.0932
1000.229
0.099997 0.288667 0.187038
424.0932
485.2745
637.4941
705.5717
876.6397
1002.487
0.099997 0.288667 0.249385
472.132
522.4763
612.8238
647.8523
921.185
989.0949
0.099997 0.288667 -0.311731
521.8317
521.8317
606.6711
606.6711
960.7819
960.7819
0.099997 0.404134 0.0
478.7654
485.2164
711.3029
879.2832
885.5094
958.6625
0.099997 0.404134 0.062346
468.0741
502.1207
709.2771
839.107
910.1889
978.3305
0.099997 0.404134 0.124692
462.7496
528.7315
698.043
789.0372
937.012
1011.3166
0.099997 0.404134 0.187038
471.0423
561.0417
670.9707
740.8422
970.1686
1033.6838
0.099997 0.404134 0.249385
498.979
580.3604
642.4326
699.1739
1002.6554
1038.7414
0.099997 0.404134 -0.311731
544.1781
544.1781
662.3846
662.3846
1027.1943
1027.1943
0.099997 0.519601 0.0
519.276
555.4119
742.5081
805.0195
922.5151
1014.8938
0.099997 0.519601 0.062346
515.6848
561.8573
730.1292
799.789
934.7376
1025.0346
0.099997 0.519601 0.124692
508.2404
580.1405
698.465
784.1297
964.5384
1047.8877
0.099997 0.519601 0.187038
505.0448
607.3495
656.6095
758.4242
1001.2871
1067.6226
0.099997 0.519601 0.249385
517.3827
597.6257
652.0201
725.5784
1035.9459
1073.0436
0.099997 0.519601 -0.311731
550.9151
550.9151
688.7683
688.7683
1061.5636
1061.5636
0.199995 0.346401 0.0
467.2789
538.0232
697.3892
874.1919
898.1182
925.2445
0.199995 0.346401 0.062346
461.0092
544.3571
706.8966
826.1836
927.7494
940.2783
0.199995 0.346401 0.124692
452.1633
561.7544
722.8473
766.7365
938.132
980.8012
0.199995 0.346401 0.187038
456.8909
581.2152
712.4687
727.862
958.4703
1004.9517
0.199995 0.346401 0.249385
483.6864
573.6413
687.8109
718.6761
982.6956
1011.2386
0.199995 0.346401 -0.311731
529.0534
529.0534
700.611
700.611
1002.309
1002.309
0.199995 0.461868 0.0
553.7339
618.9466
760.8739
809.4404
892.026
987.5758
0.199995 0.461868 0.062346
539.2464
626.9956
755.2891
798.2562
916.0765
990.0611
0.199995 0.461868 0.124692
514.1304
637.2036
725.2879
804.3903
951.8534
1000.9577
0.199995 0.461868 0.187038
498.7194
619.9663
718.2062
806.4448
981.239
1017.568
0.199995 0.461868 0.249385
503.83
575.5788
742.1077
794.1677
1005.7019
1026.5487
0.199995 0.461868 -0.311731
531.8336
531.8336
771.0155
771.0155
1022.1415
1022.1415
0.199995 0.577334 0.0
604.2275
644.0835
756.4751
795.1354
888.2147
1006.6077
0.199995 0.577334 0.062346
580.8968
663.8696
718.9344
823.7299
901.1223
1008.6955
0.199995 0.577334 0.124692
547.109
666.5634
693.6316
845.1262
933.2179
1017.2675
0.199995 0.577334 0.187038
522.4222
615.3008
726.7367
842.9018
971.2104
1029.63
0.199995 0.577334 0.249385
516.3302
568.6823
762.3464
824.3778
1004.4193
1034.9934
0.199995 0.577334 -0.311731
532.9946
532.9946
796.2878
796.2878
1026.7063
1026.7063
0.299992 0.519601 0.0
632.6555
728.5426
733.4224
806.0327
855.721
995.0367
0.299992 0.519601 0.062346
612.149
691.4426
751.094
827.4179
879.4049
990.0365
0.299992 0.519601 0.124692
573.3745
641.1112
769.6427
866.3071
922.9738
979.1719
0.299992 0.519601 0.187038
540.589
593.0275
796.2972
889.9795
960.5821
974.704
0.299992 0.519601 0.249385
524.5694
553.9041
828.7509
884.1188
983.4523
983.4619
0.299992 0.519601 -0.311731
529.4399
529.4399
860.3173
860.3173
990.0633
990.0633
P	=	13000.25	V	=	62.19902	E	=	-653.79870786
0.0 0.0 0.0
0.0
0.0
0.0
556.7666
556.7666
1155.1195
0.0 0.0 0.062323
79.2246
79.2246
201.0255
550.4383
550.4383
1140.6542
0.0 0.0 0.124646
158.5816
158.5816
394.4575
530.7986
530.7986
1099.7627
0.0 0.0 0.186969
237.5531
237.5531
496.6275
496.6275
572.0939
1037.4733
0.0 0.0 0.249292
314.3568
314.3568
447.6882
447.6882
726.5481
956.3487
0.0 0.0 -0.311615
385.7533
385.7533
385.7533
385.7533
854.1396
854.1396
0.0 0.115478 0.0
161.6809
168.6432
361.3815
583.7669
627.406
1131.8332
0.0 0.115478 0.062323
187.1063
200.3566
399.5071
577.376
620.7093
1119.9041
0.0 0.115478 0.124646
233.9689
264.3526
503.1702
558.0644
600.1834
1085.8053
0.0 0.115478 0.186969
295.3178
327.6293
525.6683
564.5335
635.0543
1032.8057
0.0 0.115478 0.249292
361.1967
392.413
480.6282
515.8636
762.5374
962.3121
0.0 0.115478 -0.311615
424.6698
424.6698
456.7671
456.7671
872.7584
872.7584
0.0 0.230956 0.0
306.4601
310.4881
643.1303
656.498
779.2375
1066.8736
0.0 0.230956 0.062323
321.8935
322.3727
636.7631
674.463
769.3324
1063.5292
0.0 0.230956 0.124646
353.8531
363.455
618.3437
714.0482
749.812
1051.8433
0.0 0.230956 0.186969
400.2429
419.7921
589.3621
684.3326
800.9754
1028.3849
0.0 0.230956 0.249292
453.0443
485.6832
551.1662
624.6894
872.4752
990.5322
0.0 0.230956 -0.311615
504.9547
504.9547
556.1088
556.1088
937.8145
937.8145
0.0 0.346434 0.0
409.3521
427.2884
698.5076
844.1435
931.1528
973.9945
0.0 0.346434 0.062323
418.7606
432.9296
692.4971
846.0783
904.3179
1003.0883
0.0 0.346434 0.124646
445.5168
450.1276
675.4243
811.7004
912.0693
1035.1796
0.0 0.346434 0.186969
481.7609
485.0854
649.3178
747.3017
951.8604
1050.9469
0.0 0.346434 0.249292
530.6692
531.7925
615.7621
673.7276
993.6895
1047.7317
0.0 0.346434 -0.311615
575.6412
575.6412
598.6198
598.6198
1027.4067
1027.4067
0.0 0.461912 0.0
463.5885
523.8513
731.5299
876.7078
940.115
1028.5342
0.0 0.461912 0.062323
472.2302
523.8531
726.0568
852.6042
955.5386
1044.5282
0.0 0.461912 0.124646
496.7282
524.8256
710.3586
803.063
987.6083
1075.2318
0.0 0.461912 0.186969
532.9273
533.0041
686.0092
741.9265
1026.1658
1098.164
0.0 0.461912 0.249292
559.3186
574.8654
654.4122
674.1025
1062.8521
1103.4812
0.0 0.461912 -0.311615
608.8388
608.8388
616.7001
616.7001
1090.4713
1090.4713
0.0 -0.577389 0.0
480.2262
570.9742
741.6863
825.7007
969.8666
1058.9758
0.0 -0.577389 0.062323
488.6442
567.94
736.4792
812.8332
980.2402
1071.5333
0.0 -0.577389 0.124646
512.4417
560.5906
721.385
778.1791
1008.2476
1098.1785
0.0 -0.577389 0.186969
547.541
557.1187
697.6181
727.5409
1045.6013
1119.7924
0.0 -0.577389 0.249292
571.1254
588.3132
666.4621
667.503
1082.605
1124.7719
0.0 -0.577389 -0.311615
610.2583
610.2583
629.2756
629.2756
1111.1114
1111.1114
0.100007 0.173217 0.0
270.0954
297.448
550.8511
663.843
723.4622
1087.7427
0.100007 0.173217 0.062323
287.4952
308.9669
568.8687
663.0911
714.8653
1081.1717
0.100007 0.173217 0.124646
330.6933
341.2153
594.7223
682.2703
689.1953
1061.2942
0.100007 0.173217 0.186969
387.0976
387.8124
581.9509
647.4733
751.4747
1027.4803
0.100007 0.173217 0.249292
439.7337
448.5761
550.1787
593.1994
835.9893
978.658
0.100007 0.173217 -0.311615
481.1819
481.1819
539.3707
539.3707
914.2183
914.2183
0.100007 0.288695 0.0
388.0945
420.5542
662.0213
812.1429
861.8814
1008.8227
0.100007 0.288695 0.062323
390.7153
431.2478
665.4241
809.6991
852.9841
1017.1027
0.100007 0.288695 0.124646
404.6727
458.8955
666.117
779.5537
863.3993
1029.7755
0.100007 0.288695 0.186969
436.4265
497.1265
653.0722
724.8274
902.0206
1031.804
0.100007 0.288695 0.249292
485.0835
535.1943
628.4373
665.3799
947.7882
1017.7822
0.100007 0.288695 -0.311615
535.1861
535.1861
622.6755
622.6755
988.5265
988.5265
0.100007 0.404173 0.0
492.0423
497.8723
729.3689
904.5289
912.1528
986.7796
0.100007 0.404173 0.062323
481.0003
515.3958
727.1982
863.4939
937.0006
1006.9643
0.100007 0.404173 0.124646
475.8255
542.5678
715.7995
811.4877
964.3459
1040.7444
0.100007 0.404173 0.186969
484.4904
575.5786
688.7362
761.1683
998.1366
1063.5568
0.100007 0.404173 0.249292
513.0945
595.5451
659.9852
717.8269
1031.3688
1068.5865
0.100007 0.404173 -0.311615
559.1853
559.1853
680.046
680.046
1056.6007
1056.6007
0.100007 0.51965 0.0
533.472
570.5229
761.7465
828.9732
949.994
1045.5954
0.100007 0.51965 0.062323
529.7747
577.1836
749.3693
822.9268
962.2748
1055.9545
0.100007 0.51965 0.124646
522.1971
595.9705
717.2936
805.8211
992.3341
1079.1776
0.100007 0.51965 0.186969
519.0925
623.8399
674.6022
778.9017
1029.7141
1099.0503
0.100007 0.51965 0.249292
531.9449
614.0854
669.8247
745.0894
1065.3411
1104.1873
0.100007 0.51965 -0.311615
566.3711
566.3711
707.397
707.397
1091.973
1091.973
0.200014 0.346434 0.0
480.7708
551.2527
715.2141
898.3195
925.4232
952.6108
0.200014 0.346434 0.062323
474.4485
557.642
724.6363
849.9163
955.2908
967.7953
0.200014 0.346434 0.124646
465.5029
575.3075
740.4707
788.9199
966.0816
1009.2663
0.200014 0.346434 0.186969
470.3001
595.3314
733.048
745.5892
986.7803
1033.9335
0.200014 0.346434 0.249292
497.5542
588.5097
706.746
736.6611
1011.269
1040.2818
0.200014 0.346434 -0.311615
543.6815
543.6815
718.8261
718.8261
1031.1468
1031.1468
0.200014 0.461912 0.0
569.8559
634.9875
781.0017
834.1974
917.8154
1016.8023
0.200014 0.461912 0.062323
554.8
643.2187
775.9703
821.23
942.7425
1019.4344
0.200014 0.461912 0.124646
528.8198
653.6529
745.9135
825.6011
979.5322
1030.5765
0.200014 0.461912 0.186969
513.0187
636.6467
737.8932
827.2757
1009.5759
1047.2238
0.200014 0.461912 0.249292
518.4043
591.6865
761.9188
814.851
1034.4524
1056.0381
0.200014 0.461912 -0.311615
547.1075
547.1075
791.3521
791.3521
1051.2902
1051.2902
0.200014 0.577389 0.0
622.0016
661.443
779.6162
816.2836
914.4228
1036.266
0.200014 0.577389 0.062323
597.5783
681.976
739.8516
846.3358
927.5035
1038.4933
0.200014 0.577389 0.124646
562.5638
685.4307
712.4384
867.9802
960.0376
1047.3056
0.200014 0.577389 0.186969
537.237
632.5672
746.3007
865.4619
998.6705
1059.6601
0.200014 0.577389 0.249292
531.2499
584.8719
782.777
846.3987
1032.6757
1064.6839
0.200014 0.577389 -0.311615
548.4502
548.4502
817.5784
817.5784
1055.7678
1055.7678
0.30002 0.51965 0.0
651.9967
751.1689
753.2555
828.704
880.1317
1023.4844
0.30002 0.51965 0.062323
630.4459
711.7155
772.0343
850.6558
904.6977
1018.3682
0.30002 0.51965 0.124646
589.9642
659.4718
790.6508
890.1976
949.4163
1007.2591
0.30002 0.51965 0.186969
556.1494
609.9072
817.7186
913.9686
987.7857
1002.6065
0.30002 0.51965 0.249292
539.9777
569.991
850.8654
907.7773
1011.0784
1011.2459
0.30002 0.51965 -0.311615
545.1207
545.1207
883.2611
883.2611
1017.8312
1017.8312
P	=	14000.17	V	=	60.81008	E	=	-653.67129259
0.0 0.0 0.0
-0.0
-0.0
0.0
568.6447
568.6447
1186.6309
0.0 0.0 0.0623
81.4187
81.4187
206.6136
562.3752
562.3752
1171.9364
0.0 0.0 0.124599
162.6281
162.6281
405.1825
542.7075
542.7075
1130.2204
0.0 0.0 0.186899
243.1181
243.1181
508.0285
508.0285
587.3344
1066.2582
0.0 0.0 0.249199
321.3983
321.3983
457.9322
457.9322
745.8032
982.5483
0.0 0.0 -0.311499
394.4139
394.4139
394.4139
394.4139
877.0683
877.0683
0.0 0.115488 0.0
166.5511
172.6658
370.514
596.3485
641.0335
1162.8711
0.0 0.115488 0.0623
191.6956
206.2943
409.8681
589.9911
634.3673
1150.7837
0.0 0.115488 0.124599
239.6924
271.3869
516.7784
570.5974
613.7771
1116.04
0.0 0.115488 0.186899
302.1706
335.4723
537.66
577.5871
652.342
1061.6093
0.0 0.115488 0.249199
369.2303
401.3597
491.4996
527.8052
783.1591
988.8491
0.0 0.115488 -0.311499
434.0936
434.0936
467.1899
467.1899
896.4708
896.4708
0.0 0.230975 0.0
315.0806
317.9423
657.4668
673.3814
797.4232
1096.4546
0.0 0.230975 0.0623
329.6879
331.8086
651.0913
691.8317
787.5012
1093.1027
0.0 0.230975 0.124599
362.402
374.1672
632.5046
731.8564
768.8027
1081.1713
0.0 0.230975 0.186899
409.6019
431.286
602.9423
701.0196
822.4505
1056.8869
0.0 0.230975 0.249199
463.2759
498.0318
563.7101
640.0871
895.9824
1017.6238
0.0 0.230975 -0.311499
516.2739
516.2739
569.8631
569.8631
963.1856
963.1856
0.0 0.346463 0.0
419.5139
438.3734
714.7657
866.2813
955.3383
1001.1356
0.0 0.346463 0.0623
429.2011
444.5736
708.7218
868.001
928.6586
1030.4275
0.0 0.346463 0.124599
456.6072
462.8347
691.4475
832.9158
936.6238
1063.1875
0.0 0.346463 0.186899
495.3176
496.9142
664.7973
767.0459
977.2838
1079.1972
0.0 0.346463 0.249199
543.2849
546.2279
630.3454
691.5376
1020.1244
1075.6928
0.0 0.346463 -0.311499
589.1903
589.1903
614.4916
614.4916
1054.7159
1054.7159
0.0 0.461951 0.0
475.6676
536.8096
749.091
900.8873
965.853
1057.1329
0.0 0.461951 0.0623
484.5781
537.0902
743.5723
875.9919
981.5788
1073.4761
0.0 0.461951 0.124599
509.7255
538.6275
727.6764
824.8604
1014.1674
1104.7922
0.0 0.461951 0.186899
546.6852
547.3342
702.8754
761.8192
1053.442
1128.0229
0.0 0.461951 0.249199
574.3094
589.3914
670.5731
692.0061
1090.997
1133.125
0.0 0.461951 -0.311499
625.0044
625.0044
632.0346
632.0346
1119.4746
1119.4746
0.0 -0.577438 0.0
493.04
584.992
759.6765
848.2182
997.0117
1089.1017
0.0 -0.577438 0.0623
501.7282
582.1078
754.42
834.8595
1007.3862
1101.8874
0.0 -0.577438 0.124599
526.1868
575.0272
739.1347
798.9671
1035.5561
1128.9191
0.0 -0.577438 0.186899
562.0656
571.7819
714.9657
746.7011
1073.4397
1150.6318
0.0 -0.577438 0.249199
586.1972
603.5959
683.2025
684.9493
1111.3024
1155.2291
0.0 -0.577438 -0.311499
626.2485
626.2485
645.2987
645.2987
1140.7755
1140.7755
0.100015 0.173231 0.0
277.8985
304.3325
564.1607
679.5448
739.7896
1117.8274
0.100015 0.173231 0.0623
296.0907
316.1788
582.4949
679.1695
731.2009
1111.2062
0.100015 0.173231 0.124599
340.3904
349.1744
608.3338
700.172
705.4108
1090.966
0.100015 0.173231 0.186899
396.6074
397.3823
595.1151
663.1227
771.827
1056.1335
0.100015 0.173231 0.249199
449.4039
459.4882
562.6227
607.6712
858.6884
1005.619
0.100015 0.173231 -0.311499
491.8206
491.8206
552.3427
552.3427
939.1167
939.1167
0.100015 0.288719 0.0
398.6434
430.2697
677.2246
832.9494
883.6396
1037.022
0.100015 0.288719 0.0623
401.6742
441.3154
680.6281
830.2445
875.2564
1045.3706
0.100015 0.288719 0.124599
416.3984
469.6688
681.328
799.4351
886.7158
1058.1564
0.100015 0.288719 0.186899
448.6381
508.6362
668.1898
743.6233
926.4167
1059.964
0.100015 0.288719 0.249199
497.6851
547.3827
643.4934
682.4105
973.2873
1045.261
0.100015 0.288719 -0.311499
548.0033
548.0033
638.0763
638.0763
1015.0613
1015.0613
0.100015 0.404207 0.0
504.8064
509.9536
746.6164
928.7306
937.7088
1013.6323
0.100015 0.404207 0.0623
493.5167
528.1833
744.3988
887.016
962.7016
1034.393
0.100015 0.404207 0.124599
488.6911
556.0021
733.0074
833.3182
990.6277
1069.0263
0.100015 0.404207 0.186899
497.7259
589.6419
706.0339
780.9492
1025.0248
1092.2537
0.100015 0.404207 0.249199
526.7891
610.1293
676.9798
735.8162
1058.8688
1097.1602
0.100015 0.404207 -0.311499
573.6191
573.6191
696.9851
696.9851
1084.6998
1084.6998
0.100015 0.519694 0.0
547.1078
585.1536
780.1865
852.0026
976.3877
1074.9606
0.100015 0.519694 0.0623
543.4203
592.0589
767.8894
845.2318
988.8051
1085.5785
0.100015 0.519694 0.124599
535.8912
611.3968
735.5877
826.8066
1019.2201
1109.2165
0.100015 0.519694 0.186899
532.8898
639.8477
692.1482
798.7004
1057.1551
1129.1806
0.100015 0.519694 0.249199
546.0679
629.9873
687.0036
763.8621
1093.5276
1133.9399
0.100015 0.519694 -0.311499
581.2399
581.2399
725.2695
725.2695
1120.9981
1120.9981
0.20003 0.346463 0.0
493.743
563.7672
732.2999
921.5322
951.6184
978.6844
0.20003 0.346463 0.0623
487.4993
570.2968
741.7243
872.8443
981.589
994.2536
0.20003 0.346463 0.124599
478.67
588.3482
757.5771
810.5664
992.8662
1036.695
0.20003 0.346463 0.186899
483.5289
608.9138
753.1846
762.778
1013.9317
1061.8423
0.20003 0.346463 0.249199
511.0154
602.792
725.0493
753.9411
1038.6195
1068.1453
0.20003 0.346463 -0.311499
557.744
557.744
736.2453
736.2453
1058.7326
1058.7326
0.20003 0.461951 0.0
585.4772
650.303
800.3628
858.0481
942.6769
1044.7518
0.20003 0.461951 0.0623
569.9558
658.7846
795.9107
843.5066
968.4681
1047.577
0.20003 0.461951 0.124599
543.287
669.558
766.0438
846.1921
1006.2592
1059.0402
0.20003 0.461951 0.186899
527.0784
652.8672
757.039
847.4262
1036.8655
1075.7201
0.20003 0.461951 0.249199
532.5202
607.2752
780.9491
834.7002
1062.001
1084.2747
0.20003 0.461951 -0.311499
561.7876
561.7876
810.7822
810.7822
1079.1438
1079.1438
0.20003 0.577438 0.0
639.2664
678.1241
801.9542
836.6363
939.6799
1064.6776
0.20003 0.577438 0.0623
613.8414
699.4659
760.1226
868.1461
952.9948
1067.0837
0.20003 0.577438 0.124599
577.7759
703.8927
730.6907
890.0687
986.0234
1076.1787
0.20003 0.577438 0.186899
551.7992
649.4792
765.2403
887.2316
1025.1904
1088.4766
0.20003 0.577438 0.249199
545.7045
600.5604
802.3965
867.5272
1059.7693
1093.0605
0.20003 0.577438 -0.311499
563.304
563.304
837.9366
837.9366
1083.5072
1083.5072
0.300046 0.519694 0.0
670.7818
772.3175
773.0715
850.5621
903.6827
1050.7729
0.300046 0.519694 0.0623
648.3066
731.3798
792.309
873.0982
929.1269
1045.5909
0.300046 0.519694 0.124599
606.3071
677.4875
811.0603
913.3039
974.9759
1034.3033
0.300046 0.519694 0.186899
571.4497
626.4824
838.4659
937.1015
1014.0022
1029.418
0.300046 0.519694 0.249199
554.9027
585.5909
872.0892
930.4366
1037.5478
1037.8227
0.300046 0.519694 -0.311499
560.1845
560.1845
905.164
905.164
1044.3429
1044.3429
P	=	14999.72	V	=	59.53025	E	=	-653.54518247
0.0 0.0 0.0
-0.0
0.0
0.0
580.0027
580.0027
1216.8448
0.0 0.0 0.062276
83.7068
83.7068
212.0543
573.8588
573.8588
1202.0006
0.0 0.0 0.124552
166.7168
166.7168
415.5776
554.293
554.293
1159.6411
0.0 0.0 0.186829
248.5343
248.5343
519.169
519.169
602.0448
1094.17
0.0 0.0 0.249105
328.1099
328.1099
467.8683
467.8683
764.3723
1007.9544
0.0 0.0 -0.311381
402.6998
402.6998
402.6998
402.6998
899.2367
899.2367
0.0 0.115496 0.0
171.3332
176.6817
379.2573
608.5161
654.1078
1192.669
0.0 0.115496 0.062276
196.3185
212.148
419.8952
602.2255
647.5333
1180.4881
0.0 0.115496 0.124552
245.4539
278.3911
530.0111
582.8118
626.9922
1145.2444
0.0 0.115496 0.186829
308.9435
343.2172
549.3579
590.305
669.083
1089.5097
0.0 0.115496 0.249105
377.0271
410.0203
502.0543
539.3662
803.0673
1014.5431
0.0 0.115496 -0.311381
443.1959
443.1959
477.212
477.212
919.3778
919.3778
0.0 0.230992 0.0
323.5127
325.3733
671.4943
689.6192
814.873
1124.9474
0.0 0.230992 0.062276
337.4916
341.111
665.0987
708.621
805.0106
1121.6207
0.0 0.230992 0.124552
370.9953
384.847
646.3149
749.1243
787.285
1109.5092
0.0 0.230992 0.186829
418.9552
442.7268
616.1459
717.2547
843.2801
1084.4335
0.0 0.230992 0.249105
473.3695
510.1389
575.8918
655.0189
918.6573
1043.75
0.0 0.230992 -0.311381
527.3146
527.3146
583.1964
583.1964
987.6067
987.6067
0.0 0.346488 0.0
429.5797
449.165
730.6051
887.568
978.5617
1027.3788
0.0 0.346488 0.062276
439.5933
455.9956
724.5256
889.1644
952.1708
1056.8256
0.0 0.346488 0.124552
467.7127
475.4482
707.0388
853.5549
960.4562
1090.2359
0.0 0.346488 0.186829
508.7159
508.7791
679.8288
786.3216
1001.897
1106.431
0.0 0.346488 0.249105
555.7217
560.3955
644.4954
708.8816
1045.5502
1102.542
0.0 0.346488 -0.311381
602.3974
602.3974
629.9328
629.9328
1080.8887
1080.8887
0.0 0.461984 0.0
487.5275
549.3956
766.0084
924.3242
990.5084
1084.6683
0.0 0.461984 0.062276
496.7737
550.0204
760.4944
898.7131
1006.6491
1101.3801
0.0 0.461984 0.124552
522.655
552.2431
744.4934
846.1714
1039.8833
1133.3108
0.0 0.461984 0.186829
560.3128
561.4806
719.2768
781.3147
1079.8132
1156.753
0.0 0.461984 0.249105
588.9618
603.6022
686.2467
709.47
1118.0248
1161.5132
0.0 0.461984 -0.311381
640.7084
640.7084
646.9076
646.9076
1147.2026
1147.2026
0.0 -0.57748 0.0
505.5681
598.6108
776.9112
870.0518
1022.9748
1118.1367
0.0 -0.57748 0.062276
514.6017
595.9317
771.6858
856.2951
1033.4743
1131.1612
0.0 -0.57748 0.124552
539.8141
589.2309
756.3607
819.333
1061.9853
1158.5633
0.0 -0.57748 0.186829
576.398
586.2209
731.8541
765.4998
1100.3653
1180.2719
0.0 -0.57748 0.249105
600.8987
618.4875
699.4377
701.9598
1138.8635
1184.3595
0.0 -0.57748 -0.311381
641.7567
641.7567
660.8001
660.8001
1169.1146
1169.1146
0.100022 0.173244 0.0
285.5412
311.1417
577.0558
694.7389
755.495
1146.7773
0.100022 0.173244 0.062276
304.581
323.3515
595.7532
694.7586
746.9705
1140.1477
0.100022 0.173244 0.124552
350.0857
357.1291
621.6147
717.5834
721.1607
1119.6324
0.100022 0.173244 0.186829
405.3395
407.6405
607.9338
678.3434
791.5742
1083.8439
0.100022 0.173244 0.249105
458.8851
470.1866
574.7095
621.6914
880.6041
1031.6534
0.100022 0.173244 -0.311381
502.1643
502.1643
564.9024
564.9024
963.118
963.118
0.100022 0.28874 0.0
408.9351
439.8469
692.0791
852.9753
904.581
1064.2601
0.100022 0.28874 0.062276
412.4651
451.2794
695.4843
850.0749
896.7856
1072.6813
0.100022 0.28874 0.124552
428.0961
480.3946
696.1612
818.7576
909.3642
1085.5819
0.100022 0.28874 0.186829
460.8161
520.0581
682.8861
761.9481
950.0768
1087.1356
0.100022 0.28874 0.249105
510.0778
559.3457
658.0968
698.998
997.8716
1071.6947
0.100022 0.28874 -0.311381
560.4748
560.4748
653.0599
653.0599
1040.555
1040.555
0.100022 0.404236 0.0
517.2251
521.8254
763.31
951.9755
962.4818
1039.5128
0.100022 0.404236 0.062276
505.8201
540.757
761.0785
909.8107
987.549
1060.8549
0.100022 0.404236 0.124552
501.4681
569.2957
749.7353
854.6376
1016.1067
1096.3304
0.100022 0.404236 0.186829
510.8528
603.5241
722.8585
800.31
1051.0417
1119.9017
0.100022 0.404236 0.249105
540.2012
624.3656
693.5189
753.3279
1085.3209
1124.5824
0.100022 0.404236 -0.311381
587.6378
587.6378
713.4359
713.4359
1111.6269
1111.6269
0.100022 0.519732 0.0
560.4609
599.3879
797.8899
874.3627
1001.6881
1103.2946
0.100022 0.519732 0.062276
556.8529
606.5874
785.7687
866.9308
1014.3404
1114.1783
0.100022 0.519732 0.124552
549.4623
626.566
753.4389
847.2849
1045.2451
1138.2128
0.100022 0.519732 0.186829
546.5151
655.5707
709.3351
818.0137
1083.6963
1158.1768
0.100022 0.519732 0.249105
559.832
645.4764
703.7287
782.0947
1120.6238
1162.447
0.100022 0.519732 -0.311381
595.6337
595.6337
742.5857
742.5857
1148.7759
1148.7759
0.200045 0.346488 0.0
506.3811
575.9996
748.9045
943.8294
977.0188
1003.8935
0.200045 0.346488 0.062276
500.31
582.7198
758.345
895.0526
1007.0653
1019.8079
0.200045 0.346488 0.124552
491.7463
601.2221
774.2359
831.6964
1018.8791
1063.1624
0.200045 0.346488 0.186829
496.6536
622.2824
772.8873
779.501
1040.2533
1088.7277
0.200045 0.346488 0.249105
524.1978
616.7066
742.8993
770.7038
1064.9927
1094.9178
0.200045 0.346488 -0.311381
571.3998
571.3998
753.1396
753.1396
1085.2291
1085.2291
0.200045 0.461984 0.0
600.7043
665.254
819.0646
881.2515
966.583
1071.7866
0.200045 0.461984 0.062276
584.822
674.0193
815.2198
865.2292
993.2636
1074.8237
0.200045 0.461984 0.124552
557.6043
685.2027
785.739
866.2428
1032.1001
1086.5944
0.200045 0.461984 0.186829
540.949
668.8083
775.7749
867.0307
1063.2519
1103.2224
0.200045 0.461984 0.249105
546.255
622.4659
799.443
853.9476
1088.5397
1111.4279
0.200045 0.461984 -0.311381
575.9831
575.9831
829.5891
829.5891
1105.8997
1105.8997
0.200045 0.57748 0.0
656.1098
694.4173
823.7097
856.2365
964.0039
1092.1405
0.200045 0.57748 0.062276
629.811
716.5454
779.9314
889.2226
977.6038
1094.7406
0.200045 0.57748 0.124552
592.8287
722.0981
748.5418
911.48
1011.193
1104.107
0.200045 0.57748 0.186829
566.1479
666.1488
783.7238
908.3795
1050.8546
1116.2748
0.200045 0.57748 0.249105
559.7388
615.8428
821.4385
888.0135
1085.8743
1120.3384
0.200045 0.57748 -0.311381
577.6326
577.6326
857.6398
857.6398
1110.1488
1110.1488
0.300067 0.519732 0.0
689.123
790.8291
794.4405
871.7676
926.4335
1077.1391
0.300067 0.519732 0.062276
665.8465
750.6431
812.054
894.8605
952.7314
1071.9365
0.300067 0.519732 0.124552
622.4819
695.302
830.9486
935.7172
999.6803
1060.5397
0.300067 0.519732 0.186829
586.5266
642.8351
858.6518
959.5499
1039.3184
1055.3947
0.300067 0.519732 0.249105
569.3853
600.7691
892.6496
952.3854
1063.0562
1063.4731
0.300067 0.519732 -0.311381
574.6936
574.6936
926.3392
926.3392
1069.8736
1069.8736

weight
   0.0000000   0.0000000   0.0000000   0.0020000   
   0.0000000   0.0000000   0.1000000   0.0040000   
   0.0000000   0.0000000   0.2000000   0.0040000   
   0.0000000   0.0000000   0.3000000   0.0040000   
   0.0000000   0.0000000   0.4000000   0.0040000   
   0.0000000   0.0000000  -0.5000000   0.0020000   
   0.0000000   0.1000000   0.0000000   0.0120000   
   0.0000000   0.1000000   0.1000000   0.0240000   
   0.0000000   0.1000000   0.2000000   0.0240000   
   0.0000000   0.1000000   0.3000000   0.0240000   
   0.0000000   0.1000000   0.4000000   0.0240000   
   0.0000000   0.1000000  -0.5000000   0.0120000   
   0.0000000   0.2000000   0.0000000   0.0120000   
   0.0000000   0.2000000   0.1000000   0.0240000   
   0.0000000   0.2000000   0.2000000   0.0240000   
   0.0000000   0.2000000   0.3000000   0.0240000   
   0.0000000   0.2000000   0.4000000   0.0240000   
   0.0000000   0.2000000  -0.5000000   0.0120000   
   0.0000000   0.3000000   0.0000000   0.0120000   
   0.0000000   0.3000000   0.1000000   0.0240000   
   0.0000000   0.3000000   0.2000000   0.0240000   
   0.0000000   0.3000000   0.3000000   0.0240000   
   0.0000000   0.3000000   0.4000000   0.0240000   
   0.0000000   0.3000000  -0.5000000   0.0120000   
   0.0000000   0.4000000   0.0000000   0.0120000   
   0.0000000   0.4000000   0.1000000   0.0240000   
   0.0000000   0.4000000   0.2000000   0.0240000   
   0.0000000   0.4000000   0.3000000   0.0240000   
   0.0000000   0.4000000   0.4000000   0.0240000   
   0.0000000   0.4000000  -0.5000000   0.0120000   
   0.0000000  -0.5000000   0.0000000   0.0060000   
   0.0000000  -0.5000000   0.1000000   0.0120000   
   0.0000000  -0.5000000   0.2000000   0.0120000   
   0.0000000  -0.5000000   0.3000000   0.0120000   
   0.0000000  -0.5000000   0.4000000   0.0120000   
   0.0000000  -0.5000000  -0.5000000   0.0060000   
   0.1000000   0.1000000   0.0000000   0.0120000   
   0.1000000   0.1000000   0.1000000   0.0240000   
   0.1000000   0.1000000   0.2000000   0.0240000   
   0.1000000   0.1000000   0.3000000   0.0240000   
   0.1000000   0.1000000   0.4000000   0.0240000   
   0.1000000   0.1000000  -0.5000000   0.0120000   
   0.1000000   0.2000000   0.0000000   0.0240000   
   0.1000000   0.2000000   0.1000000   0.0480000   
   0.1000000   0.2000000   0.2000000   0.0480000   
   0.1000000   0.2000000   0.3000000   0.0480000   
   0.1000000   0.2000000   0.4000000   0.0480000   
   0.1000000   0.2000000  -0.5000000   0.0240000   
   0.1000000   0.3000000   0.0000000   0.0240000   
   0.1000000   0.3000000   0.1000000   0.0480000   
   0.1000000   0.3000000   0.2000000   0.0480000   
   0.1000000   0.3000000   0.3000000   0.0480000   
   0.1000000   0.3000000   0.4000000   0.0480000   
   0.1000000   0.3000000  -0.5000000   0.0240000   
   0.1000000   0.4000000   0.0000000   0.0240000   
   0.1000000   0.4000000   0.1000000   0.0480000   
   0.1000000   0.4000000   0.2000000   0.0480000   
   0.1000000   0.4000000   0.3000000   0.0480000   
   0.1000000   0.4000000   0.4000000   0.0480000   
   0.1000000   0.4000000  -0.5000000   0.0240000   
   0.2000000   0.2000000   0.0000000   0.0120000   
   0.2000000   0.2000000   0.1000000   0.0240000   
   0.2000000   0.2000000   0.2000000   0.0240000   
   0.2000000   0.2000000   0.3000000   0.0240000   
   0.2000000   0.2000000   0.4000000   0.0240000   
   0.2000000   0.2000000  -0.5000000   0.0120000   
   0.2000000   0.3000000   0.0000000   0.0240000   
   0.2000000   0.3000000   0.1000000   0.0480000   
   0.2000000   0.3000000   0.2000000   0.0480000   
   0.2000000   0.3000000   0.3000000   0.0480000   
   0.2000000   0.3000000   0.4000000   0.0480000   
   0.2000000   0.3000000  -0.5000000   0.0240000   
   0.2000000   0.4000000   0.0000000   0.0120000   
   0.2000000   0.4000000   0.1000000   0.0240000   
   0.2000000   0.4000000   0.2000000   0.0240000   
   0.2000000   0.4000000   0.3000000   0.0240000   
   0.2000000   0.4000000   0.4000000   0.0240000   
   0.2000000   0.4000000  -0.5000000   0.0120000   
   0.3000000   0.3000000   0.0000000   0.0120000   
   0.3000000   0.3000000   0.1000000   0.0240000   
   0.3000000   0.3000000   0.2000000   0.0240000   
   0.3000000   0.3000000   0.3000000   0.0240000   
   0.3000000   0.3000000   0.4000000   0.0240000   
   0.3000000   0.3000000  -0.5000000   0.0120000   