Number of volumes (nv), q-vectors (nq), normal mode (np), formula units(nm)
12 84 6 1

P	=	0.15	V	=	139.26835	E	=	-655.46704126
0.0 0.0 0.0
-0.0
-0.0
0.0
220.2683
220.2683
302.0073
0.0 0.0 0.062883
35.2534
35.2534
67.3318
218.1982
218.1982
299.9394
0.0 0.0 0.125766
68.3694
68.3694
130.0482
211.2256
211.2256
294.3751
0.0 0.0 0.188649
98.7005
98.7005
183.9335
198.014
198.014
286.1383
0.0 0.0 0.251532
127.0476
127.0476
178.3925
178.3925
225.9793
274.2385
0.0 0.0 -0.314414
153.9769
153.9769
153.9846
153.9846
255.3333
255.5208
0.0 0.115102 0.0
54.0944
70.4558
118.4636
228.5205
239.1729
296.1421
0.0 0.115102 0.062883
71.5361
79.0795
130.7016
226.664
236.6953
294.7446
0.0 0.115102 0.125766
99.128
100.3326
162.6751
220.4752
228.9146
291.0632
0.0 0.115102 0.188649
122.6785
126.4474
201.44
208.7897
215.6539
285.3156
0.0 0.115102 0.251532
146.6261
150.8334
191.5047
197.2169
235.8741
275.9868
0.0 0.115102 -0.314414
170.0329
170.1347
174.4728
175.509
260.1643
260.7257
0.0 0.230203 0.0
107.2125
124.5864
207.3384
244.0116
271.9007
281.1967
0.0 0.230203 0.062883
113.097
130.0525
213.8291
242.5594
264.313
285.8751
0.0 0.230203 0.125766
128.223
143.892
230.1708
237.8268
250.8225
290.9
0.0 0.230203 0.188649
148.1167
161.6716
228.9262
234.6781
250.8628
292.801
0.0 0.230203 0.251532
169.8591
180.47
215.6996
216.3634
270.1811
290.2972
0.0 0.230203 -0.314414
192.1542
195.7007
198.8447
199.1517
282.415
284.1332
0.0 0.345305 0.0
152.7872
155.0183
251.8998
253.3572
263.4162
286.9438
0.0 0.345305 0.062883
154.8977
157.1732
252.2024
255.6479
260.3178
291.1964
0.0 0.345305 0.125766
156.224
168.6663
247.4728
248.3631
270.8959
298.8454
0.0 0.345305 0.188649
162.5921
184.0066
233.2675
241.1543
285.5637
304.8345
0.0 0.345305 0.251532
175.7386
200.4523
215.6044
230.3339
297.6729
306.9234
0.0 0.345305 -0.314414
193.91
196.1521
216.2507
216.466
304.3434
305.1083
0.0 0.460407 0.0
157.9094
190.9476
248.2611
254.751
261.7811
279.8097
0.0 0.460407 0.062883
161.7231
186.2908
245.9071
253.6394
268.4435
284.8144
0.0 0.460407 0.125766
172.2082
177.7548
239.7398
249.8393
282.3173
294.9735
0.0 0.460407 0.188649
173.846
186.8549
228.3015
242.7888
295.3682
304.0755
0.0 0.460407 0.251532
179.4118
203.0412
211.5638
232.2433
303.9099
308.9431
0.0 0.460407 -0.314414
192.35
194.513
218.486
218.8066
308.0116
309.003
0.0 -0.575508 0.0
155.8928
206.4305
240.4705
254.1073
261.8968
270.8451
0.0 -0.575508 0.062883
159.6135
198.9959
239.454
252.8558
269.8932
276.4662
0.0 -0.575508 0.125766
169.8631
186.1044
235.1085
248.8571
284.2962
289.0888
0.0 -0.575508 0.188649
177.9393
184.4463
225.4328
241.6083
296.2533
300.357
0.0 -0.575508 0.251532
179.8075
200.8603
210.1456
230.8398
303.4706
306.1725
0.0 -0.575508 -0.314414
190.0897
194.8782
216.5714
217.2219
305.7946
307.7064
0.099681 0.172652 0.0
93.0977
119.3694
183.4468
243.6004
261.7197
285.687
0.099681 0.172652 0.062883
100.4829
124.989
191.0724
242.1048
257.1775
286.969
0.099681 0.172652 0.125766
118.8019
139.2872
210.6239
237.137
245.692
288.7825
0.099681 0.172652 0.188649
141.7199
157.6096
227.561
229.7406
235.29
288.6481
0.099681 0.172652 0.251532
165.2666
176.8201
210.7266
214.1119
257.8121
284.6039
0.099681 0.172652 -0.314414
185.8537
187.5476
197.7311
199.0946
274.6053
274.7534
0.099681 0.287754 0.0
138.3904
161.3914
231.4627
262.1395
269.0841
280.9595
0.099681 0.287754 0.062883
139.2034
165.9079
237.1571
258.7827
264.0175
286.7197
0.099681 0.287754 0.125766
143.6636
177.4604
245.6543
249.4826
262.0147
294.2808
0.099681 0.287754 0.188649
154.119
192.4246
230.0347
248.2942
272.5876
299.1238
0.099681 0.287754 0.251532
170.0816
205.7793
214.005
238.7115
286.5208
299.7378
0.099681 0.287754 -0.314414
188.8835
190.7328
224.6797
225.7521
295.358
296.172
0.099681 0.402856 0.0
177.3294
177.8714
250.5625
252.2716
267.9598
285.7727
0.099681 0.402856 0.062883
172.3692
183.5696
247.3689
255.031
271.2042
288.7099
0.099681 0.402856 0.125766
167.2769
193.618
237.3802
260.051
278.5383
296.1536
0.099681 0.402856 0.188649
166.8355
207.0253
223.5777
256.7383
290.1781
303.3269
0.099681 0.402856 0.251532
174.244
206.1283
221.7832
248.149
299.8861
306.7996
0.099681 0.402856 -0.314414
188.1052
188.7045
235.776
236.194
305.4418
305.6531
0.099681 0.517957 0.0
178.1857
202.5593
239.5249
255.4289
263.0757
280.985
0.099681 0.517957 0.062883
180.1701
197.7229
236.9038
259.1532
269.4938
283.0079
0.099681 0.517957 0.125766
179.4517
196.4969
230.3376
261.4358
282.2899
290.4899
0.099681 0.517957 0.188649
174.5386
207.3831
219.2592
256.8643
294.0117
299.5881
0.099681 0.517957 0.251532
176.8664
203.686
221.5208
247.7291
301.283
305.0129
0.099681 0.517957 -0.314414
186.1664
189.3038
235.493
235.5375
304.3314
305.8754
0.199362 0.345305 0.0
170.969
201.3676
240.0476
253.1037
277.1978
285.3727
0.199362 0.345305 0.062883
168.2465
204.5913
246.4566
247.5131
282.4824
284.5008
0.199362 0.345305 0.125766
164.339
213.3708
235.752
259.6672
282.5865
291.7055
0.199362 0.345305 0.188649
164.7636
219.3391
226.948
266.9221
284.7737
298.9083
0.199362 0.345305 0.251532
171.8882
202.5689
239.6759
261.9475
293.3434
301.7684
0.199362 0.345305 -0.314414
184.8224
185.9534
251.8099
252.2475
299.7358
299.8259
0.199362 0.460407 0.0
196.3509
216.6201
237.8073
249.426
268.2807
295.3622
0.199362 0.460407 0.062883
191.1366
220.3489
234.126
255.5531
273.5299
294.5483
0.199362 0.460407 0.125766
182.3151
225.107
229.1888
267.9028
283.0444
293.1751
0.199362 0.460407 0.188649
176.4797
212.765
240.2389
275.2344
289.073
296.175
0.199362 0.460407 0.251532
177.0549
197.7788
252.134
271.5375
295.1064
299.9396
0.199362 0.460407 -0.314414
184.0776
185.1214
262.9409
263.0205
299.0762
299.7158
0.199362 0.575508 0.0
208.4056
217.5823
229.0485
259.0609
259.6879
297.0587
0.199362 0.575508 0.062883
201.6728
222.1707
226.5936
263.985
265.7748
296.1707
0.199362 0.575508 0.125766
190.9242
220.0255
230.8269
273.4615
277.9685
294.4435
0.199362 0.575508 0.188649
182.4022
209.7859
241.7202
277.2071
288.9442
295.4621
0.199362 0.575508 0.251532
179.8224
197.0144
253.2377
272.4631
295.9822
298.6374
0.199362 0.575508 -0.314414
184.313
186.4345
263.823
263.8997
298.4924
299.7245
0.299043 0.517957 0.0
210.032
223.9973
242.2676
251.7953
261.8021
305.4788
0.299043 0.517957 0.062883
205.9428
220.9467
244.996
257.6857
266.6082
304.2089
0.299043 0.517957 0.125766
197.6617
213.472
252.1826
269.6214
276.8905
300.7238
0.299043 0.517957 0.188649
189.4637
203.3847
261.6913
280.4577
286.4352
295.8923
0.299043 0.517957 0.251532
184.437
192.8254
271.3854
285.0966
292.0348
292.3619
0.299043 0.517957 -0.314414
185.291
185.6433
279.743
279.9444
293.2632
293.448
P	=	499.91	V	=	121.76477	E	=	-655.44079957
0.0 0.0 0.0
-0.0
-0.0
-0.0
266.7218
266.7218
415.8443
0.0 0.0 0.062715
41.8658
41.8658
84.6202
263.9966
263.9966
411.4281
0.0 0.0 0.12543
81.4084
81.4085
164.3686
255.0521
255.0521
399.6048
0.0 0.0 0.188145
117.9233
117.9234
234.3878
238.5775
238.5775
382.9167
0.0 0.0 0.25086
152.246
152.246
214.5526
214.5526
290.8081
361.6256
0.0 0.0 -0.313576
184.901
184.901
184.9032
184.9032
332.4019
332.4594
0.0 0.115053 0.0
64.2289
83.8577
148.3147
277.3007
292.1394
407.1996
0.0 0.115053 0.062715
85.5813
94.3548
163.7503
274.8272
289.0645
403.6812
0.0 0.115053 0.12543
118.4975
120.8688
204.8757
266.7852
279.3381
394.2818
0.0 0.115053 0.188145
146.9615
153.111
252.0666
255.6345
262.7252
380.818
0.0 0.115053 0.25086
176.0252
183.2468
230.7304
239.7231
302.2257
362.8968
0.0 0.115053 -0.313576
204.4856
204.5779
212.3182
212.8523
337.557
338.0332
0.0 0.230106 0.0
128.4047
149.5695
263.0801
298.3457
339.2849
384.7742
0.0 0.230106 0.062715
135.426
156.1029
271.0953
296.3737
333.3108
385.8681
0.0 0.230106 0.12543
154.768
172.921
289.9643
291.9794
317.6079
386.9851
0.0 0.230106 0.188145
181.2115
194.8231
278.3394
295.8087
318.973
384.9379
0.0 0.230106 0.25086
210.4535
218.1507
261.5462
270.3524
345.1206
377.6565
0.0 0.230106 -0.313576
240.2291
240.8207
240.9817
242.2169
364.0024
365.6783
0.0 0.34516 0.0
186.2122
188.3186
313.9945
327.1901
356.7365
369.9139
0.0 0.34516 0.062715
188.7207
191.3292
312.2901
332.827
345.289
380.6012
0.0 0.34516 0.12543
192.0263
205.2689
306.7997
323.7431
351.3738
392.9926
0.0 0.34516 0.188145
201.9483
224.442
297.0423
301.232
370.1282
400.5085
0.0 0.34516 0.25086
220.5089
245.3806
274.8717
282.9573
386.4877
401.6964
0.0 0.34516 -0.313576
245.9326
246.9356
265.2109
265.5667
396.6026
397.581
0.0 0.460213 0.0
196.4787
236.1549
320.3481
330.7842
349.4095
375.7618
0.0 0.460213 0.062715
200.9165
232.438
318.5603
325.7929
357.5176
382.3598
0.0 0.460213 0.12543
213.52
224.9272
313.0078
314.6115
374.3541
395.9487
0.0 0.460213 0.188145
221.5718
231.8245
297.0353
303.4718
391.1991
407.4868
0.0 0.460213 0.25086
229.0174
252.5792
273.1165
289.8324
403.5431
412.6273
0.0 0.460213 -0.313576
247.2912
248.5498
272.4091
272.7194
410.5244
411.2224
0.0 -0.575266 0.0
196.3308
258.1642
316.8705
321.5901
353.0681
373.1453
0.0 -0.575266 0.062715
200.6209
251.4905
315.5166
319.6708
361.5754
379.6029
0.0 -0.575266 0.12543
212.8497
238.6145
309.1259
313.8989
379.0241
394.3752
0.0 -0.575266 0.188145
229.6933
231.0176
294.8494
304.1776
395.3496
407.6457
0.0 -0.575266 0.25086
232.2584
252.0216
272.9196
290.3535
406.7309
413.7918
0.0 -0.575266 -0.313576
247.6122
249.973
272.587
272.6071
412.1764
413.7535
0.099639 0.17258 0.0
111.0756
143.0258
231.0839
298.0095
324.1622
391.6114
0.099639 0.17258 0.062715
120.1771
149.808
240.7698
295.9821
319.6094
390.5694
0.099639 0.17258 0.12543
143.1848
167.1305
265.4305
289.7346
306.4807
387.4488
0.099639 0.17258 0.188145
172.3816
189.4711
275.9734
286.4331
299.1096
381.6252
0.099639 0.17258 0.25086
202.5096
212.9432
259.4039
261.9412
329.4844
371.3034
0.099639 0.17258 -0.313576
227.3943
228.8706
241.7122
242.7014
354.252
354.2652
0.099639 0.287633 0.0
166.7432
195.5496
292.1899
329.306
356.7217
366.0871
0.099639 0.287633 0.062715
167.8347
201.0047
298.0864
328.4893
343.5016
376.7352
0.099639 0.287633 0.12543
174.0631
215.1588
305.9112
320.5988
335.8347
386.9735
0.099639 0.287633 0.188145
188.4661
233.6616
293.5368
306.1923
351.2563
391.9192
0.099639 0.287633 0.25086
210.3867
250.9353
270.5888
292.9646
369.6256
390.5517
0.099639 0.287633 -0.313576
235.7855
237.3624
276.0675
276.8541
382.7368
383.5962
0.099639 0.402686 0.0
217.0245
219.28
318.3276
338.4361
348.1937
374.7464
0.099639 0.402686 0.062715
211.7962
226.3609
319.3624
330.718
354.749
380.5344
0.099639 0.402686 0.12543
206.9571
239.0973
308.0983
327.8672
366.0934
392.4197
0.099639 0.402686 0.188145
207.6873
255.7626
288.3765
321.6343
381.2516
401.9762
0.099639 0.402686 0.25086
218.0713
261.1904
277.1916
309.8629
394.4127
405.5256
0.099639 0.402686 -0.313576
237.1185
238.0465
294.1349
294.269
402.7014
402.8466
0.099639 0.51774 0.0
223.2193
252.1851
315.8692
327.3209
351.0328
378.1713
0.099639 0.51774 0.062715
225.0718
248.8185
309.8207
331.4529
358.9058
382.0175
0.099639 0.51774 0.12543
224.8558
249.1256
298.4438
332.8222
375.249
392.8001
0.099639 0.51774 0.188145
220.6324
261.8587
282.2356
326.3245
391.1056
404.071
0.099639 0.51774 0.25086
223.9941
260.4631
279.8984
314.0215
402.3266
409.7777
0.099639 0.51774 -0.313576
237.8951
239.4023
297.8108
298.1321
408.1192
409.3527
0.199278 0.34516 0.0
207.89
247.1946
306.2404
340.413
359.7895
366.5903
0.199278 0.34516 0.062715
205.0377
251.1931
313.4381
328.4955
366.0543
370.6605
0.199278 0.34516 0.12543
201.043
261.8176
309.2983
327.0083
366.4317
384.9426
0.199278 0.34516 0.188145
202.5087
272.4174
291.196
332.041
373.4137
394.4862
0.199278 0.34516 0.25086
212.9716
256.4417
298.4889
325.5885
384.8966
397.3721
0.199278 0.34516 -0.313576
231.6881
232.9837
313.1464
313.4317
393.7189
393.8685
0.199278 0.460213 0.0
242.5207
271.0447
313.9933
322.7949
353.2875
385.7342
0.199278 0.460213 0.062715
236.8674
275.5682
307.0902
330.4952
360.9713
385.3364
0.199278 0.460213 0.12543
226.7386
283.3527
296.0211
344.2409
373.5047
386.9317
0.199278 0.460213 0.188145
219.6975
271.3796
303.8187
349.7801
382.7193
394.0855
0.199278 0.460213 0.25086
220.6365
250.5331
318.694
344.1103
391.6814
398.8523
0.199278 0.460213 -0.313576
231.2625
231.9508
332.7262
332.936
397.4888
397.97
0.199278 0.575266 0.0
260.7363
274.5226
298.1607
336.6734
344.0862
391.0502
0.199278 0.575266 0.062715
252.3639
281.362
293.1718
343.7574
351.4034
390.5378
0.199278 0.575266 0.12543
239.1784
281.9576
293.3694
354.6739
367.2188
390.989
0.199278 0.575266 0.188145
228.3729
266.4941
307.7965
356.2963
382.6026
395.4366
0.199278 0.575266 0.25086
224.8564
248.2339
322.9993
348.9871
393.3794
399.4734
0.199278 0.575266 -0.313576
231.6991
232.6534
337.0892
337.3438
398.4529
399.4447
0.298917 0.51774 0.0
263.7741
289.2124
308.451
327.5148
342.9299
399.0074
0.298917 0.51774 0.062715
258.432
283.5949
312.6193
335.6931
350.257
397.2534
0.298917 0.51774 0.12543
247.3664
271.527
322.4226
352.3589
365.4805
392.5398
0.298917 0.51774 0.188145
236.1303
256.4485
335.0638
366.4864
379.2052
386.8959
0.298917 0.51774 0.25086
229.0457
241.0757
348.1546
368.4747
386.3396
387.0709
0.298917 0.51774 -0.313576
230.4406
230.5106
359.8167
360.0385
388.7394
388.8962
P	=	1000.13	V	=	111.7003	E	=	-655.390663
0.0 0.0 0.0
-0.0
0.0
0.0
298.2856
298.2856
492.3864
0.0 0.0 0.062661
46.9059
46.9059
96.4956
295.1649
295.1649
486.4856
0.0 0.0 0.125323
91.0899
91.0899
187.9617
284.9743
284.9743
470.6981
0.0 0.0 0.187984
131.7276
131.7276
266.3301
266.3301
269.0826
448.6251
0.0 0.0 0.250646
169.842
169.842
239.316
239.316
335.3467
421.2627
0.0 0.0 -0.313307
206.1671
206.1671
206.1771
206.1771
385.1703
385.2286
0.0 0.115094 0.0
70.4391
93.2974
168.7918
310.6361
327.9574
481.7267
0.0 0.115094 0.062661
94.9428
104.8835
186.8232
307.7518
324.4114
476.9215
0.0 0.115094 0.125323
131.8911
135.0224
234.3365
298.4248
313.354
464.0655
0.0 0.115094 0.187984
163.8121
171.3336
281.5985
292.9886
294.7072
445.8197
0.0 0.115094 0.250646
196.3802
205.0021
257.5024
268.4672
347.92
422.39
0.0 0.115094 -0.313307
228.1717
228.2536
237.5132
238.1405
390.7656
391.0476
0.0 0.230187 0.0
142.0916
167.2019
301.3914
335.5611
384.7485
453.9034
0.0 0.230187 0.062661
150.5303
174.4282
310.8126
333.1004
378.4321
454.017
0.0 0.230187 0.125323
172.9674
193.0876
325.4018
334.9135
361.2254
453.0577
0.0 0.230187 0.187984
203.3554
217.5613
311.9134
335.9684
366.2171
448.4245
0.0 0.230187 0.250646
236.957
243.7664
292.8566
306.203
396.5544
437.9559
0.0 0.230187 -0.313307
269.4199
269.5832
271.3649
273.2951
420.3976
421.3722
0.0 0.345281 0.0
209.8527
210.5759
354.9478
378.8184
418.6937
426.1773
0.0 0.345281 0.062661
211.7124
215.6035
352.7816
384.9745
401.7362
442.2437
0.0 0.345281 0.125323
216.4666
231.0011
346.1394
374.0374
407.1282
457.4456
0.0 0.345281 0.187984
228.305
252.2
334.7156
346.5479
428.3336
465.9589
0.0 0.345281 0.250646
249.7984
275.515
314.5038
318.5681
447.0795
466.5786
0.0 0.345281 -0.313307
279.7711
280.8922
298.2324
298.4322
459.8186
460.3043
0.0 0.460375 0.0
223.7288
266.4951
363.7219
385.743
409.0837
441.0615
0.0 0.460375 0.062661
228.7507
263.2154
361.6045
379.3038
418.1111
449.1119
0.0 0.460375 0.125323
242.6797
256.3893
355.0949
365.0081
437.1008
465.1679
0.0 0.460375 0.187984
253.3768
262.7236
343.1955
343.9334
456.523
478.17
0.0 0.460375 0.250646
261.7986
285.5395
314.1331
328.0957
471.231
483.1998
0.0 0.460375 -0.313307
283.375
284.4078
308.0517
308.1982
480.1044
480.531
0.0 -0.575469 0.0
224.829
292.5591
365.7699
368.2214
415.2909
442.3333
0.0 -0.575469 0.062661
229.6405
286.305
363.5942
366.4293
424.4135
449.6967
0.0 -0.575469 0.125323
243.1796
273.6169
356.9356
358.4551
443.9459
466.2938
0.0 -0.575469 0.187984
263.0493
264.2605
340.9312
345.5349
462.9368
480.8665
0.0 -0.575469 0.250646
266.9882
286.0554
314.3858
329.355
476.7655
486.9614
0.0 -0.575469 -0.313307
284.7715
286.9591
308.9207
309.0916
484.5007
485.3603
0.099674 0.172641 0.0
122.5248
159.5986
263.5818
335.6026
366.1879
462.4162
0.099674 0.172641 0.062661
133.0718
167.1346
274.7038
333.2143
361.2037
460.4225
0.099674 0.172641 0.125323
159.5606
186.4488
302.4479
326.558
346.5841
454.7603
0.099674 0.172641 0.187984
192.8984
211.4607
308.9117
323.7817
343.3161
445.3923
0.099674 0.172641 0.250646
227.1342
237.7489
290.3798
295.5876
378.9591
430.8522
0.099674 0.172641 -0.313307
254.7755
255.8957
271.6546
272.6752
408.9444
409.0552
0.099674 0.287734 0.0
185.5334
219.3428
332.3438
376.6298
407.8831
430.5019
0.099674 0.287734 0.062661
187.2075
225.4349
338.1602
376.5172
395.266
439.8267
0.099674 0.287734 0.125323
194.8109
241.1886
344.7795
368.1695
387.6672
450.7085
0.099674 0.287734 0.187984
211.4278
261.8017
333.9815
346.7104
405.6818
455.4993
0.099674 0.287734 0.250646
236.6373
281.0765
308.2482
329.9152
426.6505
452.7956
0.099674 0.287734 -0.313307
266.3296
267.553
310.8695
311.8479
442.7386
443.2251
0.099674 0.402828 0.0
243.7311
248.048
362.1625
395.4662
404.0226
435.6273
0.099674 0.402828 0.062661
238.5214
256.0054
362.9862
384.3559
412.7643
443.3279
0.099674 0.402828 0.125323
233.7418
270.5366
353.3701
375.0521
426.4106
458.0742
0.099674 0.402828 0.187984
234.8553
288.9373
331.1353
365.7808
443.7842
469.2023
0.099674 0.402828 0.250646
246.6015
296.3803
315.5068
351.5356
458.9365
472.7801
0.099674 0.402828 -0.313307
269.2669
269.6829
333.1726
333.5863
468.9063
468.9808
0.099674 0.517922 0.0
254.4738
285.3058
366.7689
373.2126
411.3422
445.1049
0.099674 0.517922 0.062661
256.1857
282.8802
357.5656
379.4893
420.0709
450.0553
0.099674 0.517922 0.125323
255.4887
285.1066
343.2092
381.035
438.6645
462.865
0.099674 0.517922 0.187984
251.1153
299.1131
323.6778
373.1527
457.2343
475.4225
0.099674 0.517922 0.250646
254.714
297.2544
319.4057
358.4021
470.9155
481.0562
0.099674 0.517922 -0.313307
270.8898
272.2605
339.5477
339.7596
478.6861
479.3709
0.199348 0.345281 0.0
232.7485
278.6216
349.7307
397.9928
415.1728
423.6393
0.199348 0.345281 0.062661
229.9127
283.1105
357.44
381.5747
423.5172
430.2921
0.199348 0.345281 0.125323
225.9548
294.8546
357.8439
371.3384
425.5691
447.9724
0.199348 0.345281 0.187984
227.7917
306.4511
335.5119
375.7834
434.7805
459.203
0.199348 0.345281 0.250646
239.821
290.8022
338.9625
368.3961
447.8027
462.2646
0.199348 0.345281 -0.313307
262.1818
262.9341
354.4415
354.9369
457.8647
457.9789
0.199348 0.460375 0.0
273.4971
308.0473
364.155
370.9194
410.4727
448.3202
0.199348 0.460375 0.062661
267.4658
313.1567
355.1723
379.9301
419.9054
448.4037
0.199348 0.460375 0.125323
256.4446
321.479
341.8865
394.5781
435.1152
451.8521
0.199348 0.460375 0.187984
248.3269
309.1773
347.8453
399.6579
446.9387
460.7278
0.199348 0.460375 0.250646
248.9379
284.4994
363.9296
392.8465
457.6153
466.0301
0.199348 0.460375 -0.313307
261.508
262.0081
379.7928
379.8782
464.4816
464.7427
0.199348 0.575469 0.0
295.4656
313.3372
343.9367
387.0171
401.417
455.6648
0.199348 0.575469 0.062661
286.1186
321.7626
337.1411
395.7518
409.7005
455.6044
0.199348 0.575469 0.125323
271.367
322.7687
336.2739
408.0285
428.0989
457.6168
0.199348 0.575469 0.187984
258.8147
303.6403
352.9748
409.1298
446.4293
463.6307
0.199348 0.575469 0.250646
254.1168
281.4046
370.2573
400.3037
459.5623
467.9596
0.199348 0.575469 -0.313307
261.749
262.7764
386.4462
386.6209
466.4198
466.9575
0.299022 0.517922 0.0
299.4301
332.1087
353.2421
378.3799
397.4279
462.2581
0.299022 0.517922 0.062661
293.3673
324.7894
358.633
388.1954
406.4901
460.2766
0.299022 0.517922 0.125323
280.5616
309.7816
370.3777
408.1074
425.2193
455.0311
0.299022 0.517922 0.187984
267.0615
291.2411
385.0953
423.9149
441.9084
449.5121
0.299022 0.517922 0.250646
258.046
272.2991
400.2636
424.3701
450.5832
451.3592
0.299022 0.517922 -0.313307
259.2523
259.5054
413.9518
414.1022
453.4981
453.5629
P	=	1499.9	V	=	104.67202	E	=	-655.3315218
0.0 0.0 0.0
-0.0
0.0
0.0
323.3609
323.3609
553.9415
0.0 0.0 0.062629
50.8804
50.8804
106.2926
319.9649
319.9649
546.9934
0.0 0.0 0.125258
98.6428
98.6428
207.1955
308.8401
308.8401
528.285
0.0 0.0 0.187886
142.3935
142.3935
288.4335
288.4335
297.0318
501.9425
0.0 0.0 0.250515
183.4321
183.4321
258.8784
258.8784
371.0199
469.4521
0.0 0.0 -0.313144
222.7539
222.7539
222.7703
222.7703
427.535
427.5853
0.0 0.115136 0.0
75.3811
99.4947
184.8747
336.6715
356.25
541.6513
0.0 0.115136 0.062629
102.5695
112.457
204.9866
333.5141
352.4817
535.9742
0.0 0.115136 0.125258
142.1143
146.4297
257.9236
323.302
340.5108
520.6071
0.0 0.115136 0.187886
176.7124
185.7032
304.8338
319.5952
323.539
498.5118
0.0 0.115136 0.250515
211.8488
221.9496
278.4001
291.0542
384.4906
470.2996
0.0 0.115136 -0.313144
246.3617
246.3919
257.216
257.7542
433.2642
433.5607
0.0 0.230271 0.0
152.7321
179.1975
331.5173
364.1332
420.7191
509.4832
0.0 0.230271 0.062629
162.4409
187.3166
342.0357
361.4546
414.2522
509.113
0.0 0.230271 0.125258
187.7217
208.0452
352.9743
368.8588
396.1082
506.7813
0.0 0.230271 0.187886
221.0775
234.8274
338.0037
367.9845
403.9239
499.8134
0.0 0.230271 0.250515
257.687
263.2587
316.864
334.5684
437.6564
486.1223
0.0 0.230271 -0.313144
291.1852
291.2461
295.6906
297.6338
464.9611
466.0258
0.0 0.345407 0.0
226.8236
227.6786
386.7582
419.538
468.4999
471.2185
0.0 0.345407 0.062629
229.5202
233.2611
384.4151
426.2147
446.7012
492.1944
0.0 0.345407 0.125258
235.8261
250.3714
377.0789
414.3092
451.5652
509.5792
0.0 0.345407 0.187886
249.2238
273.5715
364.2573
382.9445
474.722
518.6666
0.0 0.345407 0.250515
272.7981
298.8914
346.0648
346.1048
495.3842
518.3801
0.0 0.345407 -0.313144
306.4011
307.6305
323.7141
323.7545
509.9719
510.451
0.0 0.460543 0.0
244.3911
289.8673
398.2751
429.8296
456.5738
493.5883
0.0 0.460543 0.062629
249.9814
287.1394
395.9986
422.2017
466.5541
502.5986
0.0 0.460543 0.125258
265.2941
281.1817
388.8624
405.4014
487.367
520.6228
0.0 0.460543 0.187886
278.5365
286.9912
376.3363
380.102
508.7546
534.8986
0.0 0.460543 0.250515
287.6609
311.6049
346.6957
358.4498
525.2279
539.9006
0.0 0.460543 -0.313144
311.8155
312.7648
336.2179
336.2557
535.5598
536.2793
0.0 -0.575678 0.0
246.9669
319.1728
401.402
409.3129
465.2032
497.8348
0.0 -0.575678 0.062629
252.2871
313.4076
399.0974
407.196
474.7987
505.9013
0.0 -0.575678 0.125258
267.0469
301.1863
391.8572
397.9052
495.9268
523.999
0.0 -0.575678 0.187886
288.3945
291.6189
377.6383
379.1047
517.0885
539.653
0.0 -0.575678 0.250515
294.4177
313.0959
347.2492
360.8346
532.9355
545.7426
0.0 -0.575678 -0.313144
314.0797
316.1791
338.0993
338.1717
542.062
543.3705
0.09971 0.172703 0.0
131.4746
171.0144
288.8158
364.8093
399.3262
519.3476
0.09971 0.172703 0.062629
143.4639
179.463
301.2549
362.33
394.1053
516.7843
0.09971 0.172703 0.125258
172.9789
200.854
331.1956
356.1891
378.5095
509.3657
0.09971 0.172703 0.187886
209.3211
228.1248
334.5823
353.5587
378.7149
497.0717
0.09971 0.172703 0.250515
246.3229
256.5315
314.3061
322.1729
418.3451
478.7092
0.09971 0.172703 -0.313144
275.5515
276.7189
294.9492
295.8524
452.5778
452.6582
0.09971 0.287839 0.0
199.9957
236.4358
362.7093
414.3559
448.5871
482.3271
0.09971 0.287839 0.062629
202.2544
243.3437
368.6187
414.9003
436.2112
491.2188
0.09971 0.287839 0.125258
211.2913
260.9357
374.947
406.1256
429.1589
502.5189
0.09971 0.287839 0.187886
229.6245
283.4297
365.0461
379.8319
449.0925
506.8478
0.09971 0.287839 0.250515
257.1091
304.1997
337.9023
358.8365
472.0649
502.494
0.09971 0.287839 -0.313144
289.7943
291.1197
337.9352
338.901
490.2677
490.7781
0.09971 0.402975 0.0
264.2672
269.5709
396.1269
441.3508
448.6437
484.5175
0.09971 0.402975 0.062629
259.0235
278.6227
397.0342
427.5187
459.1905
493.7928
0.09971 0.402975 0.125258
254.6655
294.9517
388.6783
413.6979
474.5758
510.9284
0.09971 0.402975 0.187886
256.2219
314.8687
365.1687
401.2528
493.6411
523.2698
0.09971 0.402975 0.250515
268.9595
323.6674
346.0792
384.5219
510.2999
526.6469
0.09971 0.402975 -0.313144
294.1952
294.6147
363.988
364.3944
521.6369
521.7961
0.09971 0.51811 0.0
278.6006
310.9735
407.6184
409.7829
459.6385
498.8917
0.09971 0.51811 0.062629
280.2698
309.563
395.2772
418.5996
469.077
504.5735
0.09971 0.51811 0.125258
279.5146
313.5403
378.8514
420.2077
489.5086
518.9362
0.09971 0.51811 0.187886
275.1676
328.612
356.7246
411.0248
510.1804
532.6144
0.09971 0.51811 0.250515
278.9191
326.2833
350.8132
393.9939
525.6943
538.2892
0.09971 0.51811 -0.313144
296.8283
298.1243
372.6837
372.9887
534.807
535.8231
0.199421 0.345407 0.0
251.853
302.3118
382.7603
444.4133
459.4793
469.4277
0.199421 0.345407 0.062629
249.1937
307.4242
391.1295
424.1857
469.7467
478.4674
0.199421 0.345407 0.125258
245.5483
320.4607
397.1007
405.9227
473.0867
498.9747
0.199421 0.345407 0.187886
247.6634
333.066
371.2765
410.4007
483.6886
511.4045
0.199421 0.345407 0.250515
260.6804
317.7626
371.0262
402.1189
497.7651
514.2116
0.199421 0.345407 -0.313144
285.6736
286.5083
386.8718
387.3877
508.8828
508.9551
0.199421 0.460543 0.0
297.5704
336.6173
404.6099
408.3045
456.4145
498.6395
0.199421 0.460543 0.062629
291.3588
342.4144
393.7465
418.8802
467.2363
499.1876
0.199421 0.460543 0.125258
279.8754
351.6558
378.7303
434.5784
484.65
504.1027
0.199421 0.460543 0.187886
270.9594
339.3186
383.0006
439.5775
498.2171
514.2882
0.199421 0.460543 0.250515
271.174
311.4287
399.7112
431.6148
510.0437
519.8576
0.199421 0.460543 -0.313144
285.1854
285.6602
416.9131
417.0417
517.7342
518.0945
0.199421 0.575678 0.0
322.7152
343.5873
380.77
426.9665
447.1462
507.5896
0.199421 0.575678 0.062629
312.6616
353.5013
372.4901
437.289
456.2601
507.9329
0.199421 0.575678 0.125258
296.9184
355.6722
370.2556
451.0244
476.7916
511.143
0.199421 0.575678 0.187886
283.0524
333.5529
388.7799
451.7551
497.4566
518.256
0.199421 0.575678 0.250515
277.2515
307.8527
407.6103
441.3384
512.3745
522.6997
0.199421 0.575678 -0.313144
285.4984
286.5079
425.485
425.7332
520.3657
521.0866
0.299131 0.51811 0.0
327.6607
366.6282
388.4666
418.5066
440.9873
512.8029
0.299131 0.51811 0.062629
321.1234
357.9136
395.0561
429.8052
451.5913
510.7414
0.299131 0.51811 0.125258
307.1492
340.7155
408.4947
452.528
473.3195
505.234
0.299131 0.51811 0.187886
291.8681
319.3942
424.7821
469.63
492.3194
499.7965
0.299131 0.51811 0.250515
281.0845
297.2891
441.4107
468.8168
501.7518
502.7656
0.299131 0.51811 -0.313144
282.1156
282.3779
456.681
456.8471
505.0238
505.0754
P	=	2000.13	V	=	99.29306	E	=	-655.26787817
0.0 0.0 0.0
-0.0
0.0
0.0
344.3685
344.3685
605.8944
0.0 0.0 0.062604
54.7432
54.7432
114.2018
340.8265
340.8265
598.0302
0.0 0.0 0.125208
105.7161
105.7161
223.0067
329.0711
329.0711
576.8438
0.0 0.0 0.187812
151.9002
151.9002
307.2302
307.2302
320.4741
547.0309
0.0 0.0 0.250415
195.0736
195.0736
275.4465
275.4465
401.361
510.4444
0.0 0.0 -0.313019
236.7678
236.7678
236.7695
236.7695
463.6899
463.7801
0.0 0.115177 0.0
79.2437
105.0691
198.5696
358.6491
379.8957
592.2027
0.0 0.115177 0.062604
108.7637
119.342
220.6165
355.3567
376.0118
585.7923
0.0 0.115177 0.125208
151.4039
156.2568
278.0616
344.5375
363.4591
568.361
0.0 0.115177 0.187812
188.093
198.181
324.6809
341.087
349.1403
543.1792
0.0 0.115177 0.250415
225.0646
236.356
296.1204
310.1335
415.7005
511.1313
0.0 0.115177 -0.313019
261.6489
261.7527
273.7557
274.2693
469.6048
469.8994
0.0 0.230353 0.0
161.4194
189.9986
357.3213
388.491
450.8668
556.2827
0.0 0.230353 0.062604
172.4047
199.0225
368.9461
385.6761
444.3144
555.621
0.0 0.230353 0.125208
200.516
221.5783
376.6302
398.095
425.6359
552.3514
0.0 0.230353 0.187812
236.5529
250.0314
360.3769
395.0401
436.3604
543.5946
0.0 0.230353 0.250415
275.5159
279.8914
337.3229
358.4986
472.7573
527.2707
0.0 0.230353 -0.313019
309.4633
309.7047
316.3019
318.1518
503.076
504.0851
0.0 0.34553 0.0
242.0377
242.1212
413.8573
454.5341
509.4588
510.3291
0.0 0.34553 0.062604
244.6163
249.2332
411.4092
461.479
484.7893
534.6745
0.0 0.34553 0.125208
252.5857
267.8168
403.5743
448.357
489.9427
553.9609
0.0 0.34553 0.187812
267.4881
292.4356
389.5671
413.8658
514.5981
563.5646
0.0 0.34553 0.250415
292.7276
319.0105
369.6366
372.8367
536.6674
562.4602
0.0 0.34553 -0.313019
329.2182
330.2976
345.3138
345.4581
552.6564
553.1547
0.0 0.460707 0.0
263.0031
309.6104
427.491
466.8589
497.3745
538.7965
0.0 0.460707 0.062604
269.077
307.3665
425.1587
458.4047
508.0415
548.6498
0.0 0.460707 0.125208
285.548
302.3159
417.6104
439.6815
530.3429
568.2234
0.0 0.460707 0.187812
300.1562
308.4605
403.9925
411.4736
553.394
583.3501
0.0 0.460707 0.250415
309.9121
334.2763
374.3444
384.3979
571.367
588.0779
0.0 0.460707 -0.313019
335.9938
337.0336
360.2769
360.4949
582.9925
583.473
0.0 -0.575884 0.0
266.8844
341.5837
431.4066
443.9259
508.0697
545.8382
0.0 -0.575884 0.062604
272.6601
336.2783
429.0482
441.575
518.0399
554.4076
0.0 -0.575884 0.125208
288.442
324.5926
421.4392
431.2457
540.4134
573.5675
0.0 -0.575884 0.187812
310.8731
314.9728
407.6647
408.7257
563.2729
589.9311
0.0 -0.575884 0.250415
317.8593
336.7133
375.1545
387.7446
580.7512
595.8389
0.0 -0.575884 -0.313019
338.9967
341.1369
363.0233
363.4543
591.4204
592.3561
0.099746 0.172765 0.0
138.6982
181.1455
310.3271
389.7336
427.0426
567.3122
0.099746 0.172765 0.062604
152.129
190.5142
323.9284
387.3023
421.7241
564.3434
0.099746 0.172765 0.125208
184.5918
213.8005
355.4109
382.1257
405.4781
555.6317
0.099746 0.172765 0.187812
223.5786
242.7712
356.5554
378.7566
409.1003
541.0632
0.099746 0.172765 0.250415
262.682
272.5579
334.6187
344.598
452.0529
519.5727
0.099746 0.172765 -0.313019
293.0132
294.124
314.7073
315.4667
489.8373
489.9746
0.099746 0.287942 0.0
212.0516
251.5111
388.3895
446.9086
482.9479
525.8623
0.099746 0.287942 0.062604
215.0466
259.223
394.4614
447.9767
470.7405
534.7464
0.099746 0.287942 0.125208
225.7204
278.4796
400.7472
438.1843
465.0438
546.571
0.099746 0.287942 0.187812
245.6019
302.3486
391.0029
408.5229
486.4904
550.6108
0.099746 0.287942 0.250415
274.7457
323.9153
362.9926
383.5084
510.9285
544.875
0.099746 0.287942 -0.313019
309.6875
310.9438
360.9722
361.8413
530.8271
531.3187
0.099746 0.403119 0.0
281.6176
288.5384
424.7724
479.7973
486.946
526.4168
0.099746 0.403119 0.062604
276.6107
298.4225
425.8126
463.9428
499.076
536.9402
0.099746 0.403119 0.125208
272.8266
316.4171
418.2558
446.9841
516.0016
556.0477
0.099746 0.403119 0.187812
274.824
337.5
393.98
431.6641
536.452
569.3457
0.099746 0.403119 0.250415
288.225
346.7551
372.4067
412.6052
554.2622
572.4371
0.099746 0.403119 -0.313019
315.36
315.8019
390.2711
390.6297
566.6326
566.69
0.099746 0.518295 0.0
299.8591
332.6098
440.463
441.9037
501.0727
545.3102
0.099746 0.518295 0.062604
301.4255
332.226
426.7595
451.8185
511.0569
551.5891
0.099746 0.518295 0.125208
300.4607
338.1113
408.9556
453.4955
532.9508
567.1297
0.099746 0.518295 0.187812
295.9918
354.2256
384.7774
443.2536
555.3582
581.5311
0.099746 0.518295 0.250415
299.7092
350.9007
377.9057
424.2935
572.4161
586.9962
0.099746 0.518295 -0.313019
318.8788
320.146
401.1351
401.2632
582.8418
583.5798
0.199492 0.34553 0.0
267.9907
322.7993
410.6088
483.2453
496.9837
508.9887
0.199492 0.34553 0.062604
265.6849
328.5721
419.6374
459.9954
509.747
519.2423
0.199492 0.34553 0.125208
262.6573
342.8537
430.361
435.3744
514.2176
542.2381
0.199492 0.34553 0.187812
265.0509
356.052
401.8029
439.89
525.8778
555.7748
0.199492 0.34553 0.250415
278.5961
340.4828
398.5306
430.6742
540.6215
558.4097
0.199492 0.34553 -0.313019
305.6024
306.3923
414.3578
414.814
552.3884
552.4577
0.199492 0.460707 0.0
317.8915
361.1831
438.3665
439.7288
495.5415
541.8868
0.199492 0.460707 0.062604
311.6871
367.6283
426.1058
451.8011
507.5477
542.8547
0.199492 0.460707 0.125208
300.1213
377.6921
410.1361
468.4889
526.9977
548.9109
0.199492 0.460707 0.187812
290.5929
364.9523
413.3796
473.4619
542.1636
559.98
0.199492 0.460707 0.250415
290.2076
334.2357
430.317
464.422
554.8871
565.6221
0.199492 0.460707 -0.313019
305.1874
305.6699
448.4157
448.4842
563.1639
563.4357
0.199492 0.575884 0.0
345.5927
369.5966
411.5545
460.4269
486.2579
552.1028
0.199492 0.575884 0.062604
335.1859
380.8333
402.1911
472.1529
496.0836
552.844
0.199492 0.575884 0.125208
318.9387
383.6027
399.6422
487.3023
518.4221
557.0839
0.199492 0.575884 0.187812
304.0319
359.0486
419.6408
487.8843
540.9945
564.9776
0.199492 0.575884 0.250415
297.0367
330.2854
439.5284
476.1316
557.3063
569.3267
0.199492 0.575884 -0.313019
305.5816
306.5742
458.7202
458.8424
566.3704
566.9316
0.299238 0.518295 0.0
351.3172
395.3878
418.5879
452.4747
477.9742
555.7161
0.299238 0.518295 0.062604
344.5995
385.7351
426.3138
465.1284
489.8867
553.6795
0.299238 0.518295 0.125208
330.0235
367.0859
441.3024
490.3474
514.2298
548.1474
0.299238 0.518295 0.187812
313.314
343.5225
458.8309
508.4234
535.1874
542.9167
0.299238 0.518295 0.250415
300.7294
318.5142
476.4686
506.4974
545.3696
546.378
0.299238 0.518295 -0.313019
301.3839
301.6497
492.9508
493.0635
548.7243
548.7817
P	=	2499.82	V	=	94.96628	E	=	-655.20193295
0.0 0.0 0.0
-0.0
-0.0
0.0
363.0284
363.0284
651.4321
0.0 0.0 0.062586
58.2588
58.2588
121.2794
359.3985
359.3985
642.846
0.0 0.0 0.125172
112.2465
112.2465
237.1548
347.2096
347.2096
619.6875
0.0 0.0 0.187758
160.8231
160.8231
324.2927
324.2927
341.4523
587.0481
0.0 0.0 0.250344
206.083
206.083
290.7415
290.7415
428.5122
547.0019
0.0 0.0 -0.312929
249.9163
249.9163
249.9163
249.9163
496.0806
496.0806
0.0 0.115205 0.0
83.0126
109.6097
210.4917
378.0082
400.6999
636.5451
0.0 0.115205 0.062586
114.5264
125.1026
234.4095
374.645
396.8172
629.5796
0.0 0.115205 0.125172
159.5266
165.1322
296.1011
363.4046
383.941
610.5273
0.0 0.115205 0.187758
198.3026
209.6124
342.4358
360.3636
372.0309
582.8276
0.0 0.115205 0.250344
237.0737
249.6935
312.0624
327.2624
443.4183
547.5419
0.0 0.115205 -0.312929
275.5992
275.5992
288.9906
288.9906
502.1293
502.1293
0.0 0.230409 0.0
169.6219
198.9746
379.7881
409.7138
477.1533
597.4188
0.0 0.230409 0.062586
181.7796
208.8366
392.5381
406.8789
470.7086
596.6104
0.0 0.230409 0.125172
212.263
233.199
397.4665
424.0017
451.8906
592.6674
0.0 0.230409 0.187758
250.7849
263.2658
380.0851
419.0268
465.0627
582.4896
0.0 0.230409 0.250344
292.1029
294.4445
355.1939
379.2506
503.4158
563.9901
0.0 0.230409 -0.312929
325.5965
325.5965
335.4289
335.4289
537.1693
537.1693
0.0 0.345614 0.0
255.1828
255.2853
437.3971
485.0334
542.765
547.2162
0.0 0.345614 0.062586
258.546
263.0768
434.9558
492.4274
518.191
572.1317
0.0 0.345614 0.125172
268.0493
283.0617
426.8439
478.5311
523.835
593.2047
0.0 0.345614 0.187758
284.2664
308.9078
411.8207
441.3032
549.7452
603.3147
0.0 0.345614 0.250344
310.8866
336.5011
390.1711
396.3767
572.7421
601.4007
0.0 0.345614 -0.312929
349.9378
349.9378
364.161
364.161
590.2694
590.2694
0.0 0.460819 0.0
279.6076
327.275
452.8659
499.6869
533.0584
578.1006
0.0 0.460819 0.062586
286.181
325.6426
450.5586
490.3867
544.5467
588.8987
0.0 0.460819 0.125172
303.6275
321.6395
442.848
469.9077
568.313
610.162
0.0 0.460819 0.187758
319.86
327.4378
428.4117
439.3142
592.7439
626.0609
0.0 0.460819 0.250344
329.7649
354.1473
399.1707
407.2978
611.8554
630.3266
0.0 0.460819 -0.312929
358.1579
358.1579
381.5692
381.5692
624.612
624.612
0.0 -0.576023 0.0
284.9241
361.4028
457.4645
474.78
545.654
587.4915
0.0 -0.576023 0.062586
291.0462
356.5398
455.1638
472.1213
556.1063
596.7135
0.0 -0.576023 0.125172
307.5819
345.5115
447.4544
460.8029
579.7463
617.077
0.0 -0.576023 0.187758
330.7959
336.0359
432.9457
436.3328
604.039
634.0946
0.0 -0.576023 0.250344
339.0166
357.5439
400.0057
411.5829
622.7326
639.732
0.0 -0.576023 -0.312929
362.4133
362.4133
385.4064
385.4064
634.9207
634.9207
0.09977 0.172807 0.0
145.5844
189.5072
329.0181
411.5535
451.2391
609.4419
0.09977 0.172807 0.062586
160.3229
199.8201
343.7475
409.2639
445.9349
606.2096
0.09977 0.172807 0.125172
195.388
224.9911
376.5476
405.3158
429.3225
596.5444
0.09977 0.172807 0.187758
236.5632
255.5538
376.0136
401.1727
436.0294
580.0756
0.09977 0.172807 0.250344
277.3349
286.5455
352.5438
364.5457
481.8802
555.7918
0.09977 0.172807 -0.312929
308.942
308.942
332.4821
332.4821
522.8951
522.8951
0.09977 0.288012 0.0
223.2022
264.2122
410.642
475.3636
512.8939
564.1851
0.09977 0.288012 0.062586
226.9336
272.707
417.0025
476.9567
501.0002
573.1856
0.09977 0.288012 0.125172
239.1078
293.5311
423.4472
466.5871
496.6985
585.5479
0.09977 0.288012 0.187758
260.2417
318.7164
413.6528
434.2074
519.4442
589.3671
0.09977 0.288012 0.250344
290.6162
341.1171
385.1692
404.9333
544.9162
582.3577
0.09977 0.288012 -0.312929
327.7865
327.7865
381.4521
381.4521
566.6285
566.6285
0.09977 0.403216 0.0
297.2571
305.051
449.6507
513.7446
520.4372
562.8985
0.09977 0.403216 0.062586
292.5699
315.7841
450.8676
496.0957
534.1151
574.7119
0.09977 0.403216 0.125172
289.5119
335.2088
443.9584
476.7141
552.5003
595.8116
0.09977 0.403216 0.187758
291.8061
357.2577
419.419
458.6819
574.1176
609.9793
0.09977 0.403216 0.250344
305.4247
367.0498
395.873
437.2299
592.7749
612.6397
0.09977 0.403216 -0.312929
334.4354
334.4354
413.4339
413.4339
605.9587
605.9587
0.09977 0.518421 0.0
318.8499
351.7687
467.0751
472.3369
537.4373
585.6392
0.09977 0.518421 0.062586
320.3218
352.4461
454.1578
481.1985
548.0387
592.5825
0.09977 0.518421 0.125172
319.2957
360.0624
435.3202
482.8381
571.3256
609.409
0.09977 0.518421 0.187758
314.8124
376.9067
409.6434
471.7231
595.1664
624.4912
0.09977 0.518421 0.250344
318.3529
372.9267
401.9176
451.0552
613.4244
629.6372
0.09977 0.518421 -0.312929
339.3491
339.3491
426.1943
426.1943
625.1109
625.1109
0.19954 0.345614 0.0
282.5756
340.2893
434.9328
517.4592
529.7107
543.516
0.19954 0.345614 0.062586
280.5903
346.6983
444.6172
491.5304
544.7482
555.0588
0.19954 0.345614 0.125172
278.1456
362.1399
459.953
461.29
550.3309
580.3261
0.19954 0.345614 0.187758
280.7764
375.882
429.152
465.8271
562.9034
594.8168
0.19954 0.345614 0.250344
294.7033
360.4787
422.7837
455.6509
578.1291
597.167
0.19954 0.345614 -0.312929
323.7655
323.7655
438.5217
438.5217
590.4646
590.4646
0.19954 0.460819 0.0
335.9149
382.6535
467.1197
468.1276
529.8268
579.5687
0.19954 0.460819 0.062586
329.8282
389.661
454.4965
480.7177
542.9086
580.9735
0.19954 0.460819 0.125172
318.3777
400.3812
437.9158
498.2392
564.2103
588.1437
0.19954 0.460819 0.187758
308.4027
387.5589
440.2354
503.2201
580.6908
600.0508
0.19954 0.460819 0.250344
307.4319
354.8717
457.1913
493.187
594.1632
605.6689
0.19954 0.460819 -0.312929
323.6541
323.6541
476.0056
476.0056
602.9954
602.9954
0.19954 0.576023 0.0
365.6934
392.6252
438.7568
489.4074
520.6949
590.8472
0.19954 0.576023 0.062586
355.0488
404.9659
428.4013
502.4478
531.154
591.9877
0.19954 0.576023 0.125172
338.502
408.3408
425.5352
518.9408
555.0569
597.2001
0.19954 0.576023 0.187758
322.9409
381.8602
446.7807
519.5018
579.2393
605.8042
0.19954 0.576023 0.250344
315.1738
350.6712
467.5524
506.6364
596.6913
610.0886
0.19954 0.576023 -0.312929
324.5547
324.5547
487.8848
487.8848
606.8357
606.8357
0.299311 0.518421 0.0
372.0936
420.6569
445.1119
482.2437
510.3415
593.0369
0.299311 0.518421 0.062586
365.2903
410.2066
453.8781
496.0121
523.3428
591.0451
0.299311 0.518421 0.125172
350.3555
390.4355
470.2054
523.3274
549.9393
585.551
0.299311 0.518421 0.187758
332.6821
365.2032
488.7397
542.2532
572.6568
580.5688
0.299311 0.518421 0.250344
318.8677
338.0109
507.1741
539.4177
583.5086
584.5676
0.299311 0.518421 -0.312929
319.4836
319.4836
524.6939
524.6939
587.0364
587.0364
P	=	2999.93	V	=	91.35259	E	=	-655.1345448
0.0 0.0 0.0
-0.0
0.0
0.0
379.1537
379.1537
691.447
0.0 0.0 0.06257
61.5536
61.5536
127.508
375.4885
375.4885
682.23
0.0 0.0 0.12514
118.1391
118.1391
249.5678
362.9605
362.9605
657.3329
0.0 0.0 0.18771
168.4787
168.4787
339.002
339.002
359.801
622.1694
0.0 0.0 0.25028
215.1966
215.1966
303.6681
303.6681
452.224
579.0161
0.0 0.0 -0.31285
260.791
260.791
260.791
260.791
524.346
524.346
0.0 0.115231 0.0
86.6132
113.652
221.3832
394.8139
418.8779
675.5431
0.0 0.115231 0.06257
119.8761
130.3545
246.874
391.4352
415.0204
668.0855
0.0 0.115231 0.12514
166.8629
173.2092
312.1323
379.8922
401.8888
647.6056
0.0 0.115231 0.18771
207.2161
219.555
357.9039
377.2058
392.3099
617.6659
0.0 0.115231 0.25028
247.2497
260.9002
325.7749
342.1684
467.9398
579.4683
0.0 0.115231 -0.31285
287.355
287.355
301.7857
301.7857
530.5855
530.5855
0.0 0.230462 0.0
177.0619
206.8687
400.1144
428.2704
500.47
633.6148
0.0 0.230462 0.06257
190.2825
217.5685
413.7883
425.4514
494.0739
632.6793
0.0 0.230462 0.12514
222.8901
243.5639
415.7983
447.0624
475.1182
628.1981
0.0 0.230462 0.18771
263.1873
274.9217
397.4482
440.1841
490.7797
616.7529
0.0 0.230462 0.25028
305.9632
307.0685
370.8772
397.8672
531.0733
596.2161
0.0 0.230462 -0.31285
339.5081
339.5081
351.3008
351.3008
567.026
567.026
0.0 0.345693 0.0
266.5907
266.6348
458.0606
512.284
572.4713
579.525
0.0 0.345693 0.06257
270.6412
275.0996
455.6436
519.8998
547.71
605.2461
0.0 0.345693 0.12514
281.5079
296.4392
447.3193
504.9201
554.0469
627.8397
0.0 0.345693 0.18771
298.7703
323.3754
431.3884
465.3223
581.073
638.3675
0.0 0.345693 0.25028
326.4001
351.7768
408.1717
417.1277
604.9754
635.7515
0.0 0.345693 -0.31285
367.5019
367.5019
380.5525
380.5525
623.4838
623.4838
0.0 0.460924 0.0
293.6269
342.2646
475.1773
528.1205
564.7378
612.9683
0.0 0.460924 0.06257
300.7419
341.1016
472.8833
518.16
576.8456
624.5295
0.0 0.460924 0.12514
319.2999
337.941
464.9605
496.2006
601.8572
647.1301
0.0 0.460924 0.18771
336.6179
344.0383
449.683
463.3914
627.4627
663.7015
0.0 0.460924 0.25028
346.9314
371.4803
420.3949
427.1362
647.5047
667.6747
0.0 0.460924 -0.31285
376.7552
376.7552
399.9342
399.9342
661.1403
661.1403
0.0 -0.576155 0.0
300.0142
378.1501
480.3884
501.2893
578.9785
624.2819
0.0 -0.576155 0.06257
306.6201
373.6977
478.0937
498.3467
589.7721
634.0706
0.0 -0.576155 0.12514
324.1571
363.2769
470.17
486.1356
614.3656
655.4825
0.0 -0.576155 0.18771
348.2254
353.9498
454.8541
459.9509
639.8213
673.0564
0.0 -0.576155 0.25028
357.0286
375.6771
421.2389
432.1262
659.5865
678.4164
0.0 -0.576155 -0.31285
381.4726
381.4726
404.5393
404.5393
672.7721
672.7721
0.099793 0.172847 0.0
151.9452
197.0058
345.785
430.8459
472.5646
646.5238
0.099793 0.172847 0.06257
167.7789
208.1968
361.4515
428.7654
467.293
643.0507
0.099793 0.172847 0.12514
204.9985
235.046
395.0542
426.2776
450.3698
632.5453
0.099793 0.172847 0.18771
247.9288
266.8829
393.1373
420.8988
460.1152
614.4471
0.099793 0.172847 0.25028
289.991
298.762
368.2478
381.9849
508.424
587.7872
0.099793 0.172847 -0.31285
322.1816
322.1816
347.6847
347.6847
552.1385
552.1385
0.099793 0.288078 0.0
233.1053
275.4741
430.1209
500.9009
539.5447
597.874
0.099793 0.288078 0.06257
237.4479
284.7472
436.7496
502.8627
527.8546
607.0677
0.099793 0.288078 0.12514
250.8765
307.0624
443.4528
491.4942
525.0319
619.9393
0.099793 0.288078 0.18771
272.991
333.2886
433.5002
456.8991
548.9101
623.5648
0.099793 0.288078 0.25028
304.2817
356.138
404.4141
424.2102
575.3658
615.4363
0.099793 0.288078 -0.31285
342.8888
342.8888
399.1813
399.1813
598.2668
598.2668
0.099793 0.403309 0.0
310.7727
319.3793
471.5057
543.3963
550.1989
595.4031
0.099793 0.403309 0.06257
306.2595
330.9864
472.9118
524.2317
565.1774
608.2333
0.099793 0.403309 0.12514
303.7709
351.8352
466.4501
502.8165
584.8782
630.9218
0.099793 0.403309 0.18771
306.3922
374.7365
441.4587
482.4903
607.5205
645.8166
0.099793 0.403309 0.25028
320.3229
384.5509
416.2782
458.9982
626.882
648.1779
0.099793 0.403309 -0.31285
350.5989
350.5989
433.6655
433.6655
640.7526
640.7526
0.099793 0.51854 0.0
335.0716
368.1595
490.5175
498.6756
569.6665
621.3586
0.099793 0.51854 0.06257
336.5104
369.7685
477.9364
507.0014
580.7293
628.8683
0.099793 0.51854 0.12514
335.4488
379.0372
458.225
508.5505
605.152
646.7505
0.099793 0.51854 0.18771
330.9066
396.7405
431.0566
496.598
630.1934
662.3967
0.099793 0.51854 0.25028
334.3523
391.6289
422.8829
474.4109
649.4371
667.2888
0.099793 0.51854 -0.31285
356.17
356.17
448.0354
448.0354
662.0038
662.0038
0.199586 0.345693 0.0
295.398
355.8632
456.1555
547.4893
558.6889
574.472
0.199586 0.345693 0.06257
293.6924
362.882
466.4952
519.1432
576.1
586.7261
0.199586 0.345693 0.12514
291.7615
379.4264
484.1564
485.6986
582.5799
613.9504
0.199586 0.345693 0.18771
294.547
393.5653
452.8653
488.8202
595.8598
629.2753
0.199586 0.345693 0.25028
308.6475
377.6998
444.2569
477.8127
611.4405
631.4247
0.199586 0.345693 -0.31285
338.9985
338.9985
459.7647
459.7647
624.17
624.17
0.199586 0.460924 0.0
351.7008
401.5411
491.1644
494.1986
560.1878
613.1371
0.199586 0.460924 0.06257
345.6295
409.1284
479.2609
506.226
574.1907
614.9164
0.199586 0.460924 0.12514
334.1852
420.505
462.1261
524.5414
597.097
622.9641
0.199586 0.460924 0.18771
323.7914
407.1513
463.906
529.5462
614.7515
635.459
0.199586 0.460924 0.25028
322.2877
372.3534
480.9239
518.6277
628.7852
641.0409
0.199586 0.460924 -0.31285
339.1034
339.1034
500.356
500.356
637.9981
637.9981
0.199586 0.576155 0.0
383.2925
412.7446
462.5528
514.9826
551.1555
625.2659
0.199586 0.576155 0.06257
372.3926
426.1511
451.2388
529.2239
562.1724
626.7647
0.199586 0.576155 0.12514
355.5412
429.7669
448.3759
546.9055
587.4204
632.808
0.199586 0.576155 0.18771
339.2819
401.4406
470.7547
547.4213
612.9501
641.9428
0.199586 0.576155 0.25028
330.6191
367.9644
492.2713
533.5287
631.3451
646.054
0.199586 0.576155 -0.31285
340.1407
340.1407
513.5216
513.5216
642.2044
642.2044
0.299379 0.51854 0.0
390.4897
442.962
468.5583
508.4507
538.9745
626.2358
0.299379 0.51854 0.06257
383.5202
431.6905
478.2647
523.3073
552.9948
624.3019
0.299379 0.51854 0.12514
368.1465
410.7722
495.7661
552.5606
581.5929
618.8627
0.299379 0.51854 0.18771
349.466
383.8793
515.1588
572.2187
605.775
614.0285
0.299379 0.51854 0.25028
334.3341
354.5648
534.2694
568.5619
617.1947
618.2179
0.299379 0.51854 -0.31285
334.6354
334.6354
552.679
552.679
620.7451
620.7451
P	=	3199.99	V	=	90.05891	E	=	-655.10728766
0.0 0.0 0.0
0.0
0.0
0.0
385.1359
385.1359
706.6018
0.0 0.0 0.062567
62.7716
62.7716
129.8868
381.4479
381.4479
697.1468
0.0 0.0 0.125134
120.3225
120.3225
254.2535
368.7736
368.7736
671.5755
0.0 0.0 0.187701
171.3193
171.3193
344.4153
344.4153
366.6444
635.3966
0.0 0.0 0.250268
218.5724
218.5724
308.4243
308.4243
461.01
590.9788
0.0 0.0 -0.312835
264.8034
264.8034
264.8034
264.8034
534.8332
534.8332
0.0 0.115239 0.0
88.114
115.1747
225.497
401.0357
425.6269
690.3263
0.0 0.115239 0.062567
121.972
132.3077
251.5752
397.6427
421.7738
682.6784
0.0 0.115239 0.125134
169.566
176.28
318.1531
385.9715
408.5391
661.641
0.0 0.115239 0.187701
210.5018
223.3097
363.5992
383.4471
399.8945
630.816
0.0 0.115239 0.250268
251.01
265.1139
330.8291
347.7085
477.0991
591.4676
0.0 0.115239 -0.312835
291.6977
291.6977
306.5678
306.5678
541.2361
541.2361
0.0 0.230479 0.0
180.0281
209.8032
407.7588
435.1182
509.1336
647.3853
0.0 0.230479 0.062567
193.5725
220.797
421.7783
432.2995
502.7565
646.3838
0.0 0.230479 0.125134
226.9169
247.3723
422.5491
455.7106
483.7653
641.666
0.0 0.230479 0.187701
267.9379
279.2056
403.8439
448.0999
500.4092
629.7226
0.0 0.230479 0.250268
311.3245
311.7259
376.6657
404.9069
541.4621
608.4048
0.0 0.230479 -0.312835
344.6502
344.6502
357.3952
357.3952
578.2905
578.2905
0.0 0.345718 0.0
270.8167
270.9864
465.6535
522.471
583.4998
591.8996
0.0 0.345718 0.062567
275.2379
279.5316
463.2466
530.1894
558.7785
617.7693
0.0 0.345718 0.125134
286.5701
301.3746
454.8479
514.8373
565.341
640.8938
0.0 0.345718 0.187701
304.3127
328.717
438.5898
474.3893
592.7907
651.56
0.0 0.345718 0.250268
332.4519
357.4177
414.8051
425.0718
617.0534
648.6731
0.0 0.345718 -0.312835
374.3443
374.3443
386.6009
386.6009
635.9601
635.9601
0.0 0.460958 0.0
298.7869
347.9697
483.325
539.0823
576.5265
625.8751
0.0 0.460958 0.062567
306.1219
346.9498
481.048
528.7804
588.8821
637.777
0.0 0.460958 0.125134
325.1219
344.0753
473.071
506.1641
614.365
660.9291
0.0 0.460958 0.187701
342.9709
350.2053
457.4986
472.4994
640.4153
677.7653
0.0 0.460958 0.250268
353.5209
377.8888
428.4783
434.4276
660.8137
681.6311
0.0 0.460958 -0.312835
383.9037
383.9037
406.6936
406.6936
674.7864
674.7864
0.0 -0.576197 0.0
305.5732
384.5166
488.7321
511.5346
591.3587
637.8776
0.0 -0.576197 0.062567
312.3854
380.1954
486.4579
508.4131
602.2918
647.9171
0.0 -0.576197 0.125134
330.3349
369.9784
478.4904
495.7504
627.2553
669.7747
0.0 -0.576197 0.187701
354.7177
360.7243
462.897
468.8679
653.1508
687.5789
0.0 -0.576197 0.250268
363.8773
382.384
429.272
439.6674
673.3195
692.8391
0.0 -0.576197 -0.312835
388.7194
388.7194
411.5727
411.5727
686.8814
686.8814
0.0998 0.172859 0.0
154.513
199.8189
352.0779
438.0013
480.4854
660.614
0.0998 0.172859 0.062567
170.6793
211.3133
368.0893
435.9998
475.2258
657.0368
0.0998 0.172859 0.125134
208.6452
238.7493
401.9178
434.1097
458.1931
646.1881
0.0998 0.172859 0.187701
252.2691
271.0491
399.4677
428.259
469.1279
627.4553
0.0998 0.172859 0.250268
294.8408
303.2689
374.0695
388.5519
518.3904
599.8826
0.0998 0.172859 -0.312835
327.1219
327.1219
353.4347
353.4347
563.1654
563.1654
0.0998 0.288098 0.0
236.9612
279.6629
437.3577
510.4123
549.4496
610.7516
0.0998 0.288098 0.062567
241.4584
289.2138
444.0834
512.5189
537.8636
619.9656
0.0998 0.288098 0.125134
255.2983
312.0589
450.8647
500.817
535.6056
632.9608
0.0998 0.288098 0.187701
277.8661
338.6637
440.849
465.4517
559.9294
636.482
0.0998 0.288098 0.250268
309.6058
361.6997
411.69
431.4649
586.7864
627.9185
0.0998 0.288098 -0.312835
348.6945
348.6945
405.8575
405.8575
610.1781
610.1781
0.0998 0.403338 0.0
315.9394
324.6894
479.5716
554.8236
561.2754
607.4589
0.0998 0.403338 0.062567
311.4144
336.6531
481.0506
534.9334
576.7936
620.7527
0.0998 0.403338 0.125134
309.1096
358.0197
474.7706
512.6866
596.9637
644.0799
0.0998 0.403338 0.187701
311.9242
381.2273
449.7064
491.4214
619.9961
659.2472
0.0998 0.403338 0.250268
326.0777
391.1157
423.9723
467.1291
639.6344
661.4922
0.0998 0.403338 -0.312835
356.8303
356.8303
441.2237
441.2237
653.778
653.778
0.0998 0.518577 0.0
341.0911
374.4118
499.1117
508.8808
581.6604
634.5744
0.0998 0.518577 0.062567
342.5319
376.3377
486.8085
516.7936
592.9069
642.33
0.0998 0.518577 0.125134
341.4976
386.1663
466.7935
518.1932
617.7597
660.6593
0.0998 0.518577 0.187701
336.9806
404.1508
439.0886
505.8729
643.2491
676.537
0.0998 0.518577 0.250268
340.4426
398.6768
430.6984
483.0924
662.8626
681.3356
0.0998 0.518577 -0.312835
362.5708
362.5708
456.1479
456.1479
675.7628
675.7628
0.1996 0.345718 0.0
300.3157
361.6641
464.0666
559.071
569.4546
585.9676
0.1996 0.345718 0.062567
298.654
368.8965
474.6604
529.6043
587.754
598.677
0.1996 0.345718 0.125134
296.8648
385.8241
492.6873
495.425
594.5939
626.6107
0.1996 0.345718 0.187701
299.7874
400.1077
461.8491
497.3906
608.1635
642.2211
0.1996 0.345718 0.250268
314.0777
384.2194
452.3507
486.0836
623.8997
644.2792
0.1996 0.345718 -0.312835
344.9216
344.9216
467.716
467.716
636.7997
636.7997
0.1996 0.460958 0.0
357.7594
408.5975
500.1044
504.3433
571.4882
625.5875
0.1996 0.460958 0.062567
351.6356
416.4011
488.7103
515.8318
585.8833
627.5271
0.1996 0.460958 0.125134
340.141
428.0116
471.3074
534.388
609.3859
635.9544
0.1996 0.460958 0.187701
329.6243
414.5217
472.7826
539.3753
627.4627
648.6913
0.1996 0.460958 0.250268
327.9976
379.0131
489.7764
528.1126
641.7053
654.2518
0.1996 0.460958 -0.312835
345.0584
345.0584
509.429
509.429
651.0633
651.0633
0.1996 0.576197 0.0
390.0766
420.2797
471.8413
524.4419
562.5302
638.0288
0.1996 0.576197 0.062567
379.0017
434.1222
460.0229
539.2253
573.7582
639.6802
0.1996 0.576197 0.125134
361.9853
437.8993
456.945
557.3691
599.5041
646.074
0.1996 0.576197 0.187701
345.4762
408.8465
479.7037
557.8411
625.5233
655.4282
0.1996 0.576197 0.250268
336.5201
374.5385
501.4669
543.5421
644.2608
659.4699
0.1996 0.576197 -0.312835
346.107
346.107
523.053
523.053
655.3883
655.3883
0.299401 0.518577 0.0
397.6375
451.6923
477.3603
518.2256
549.6479
638.5652
0.299401 0.518577 0.062567
390.5359
439.9807
487.4442
533.521
564.0843
636.6656
0.299401 0.518577 0.125134
374.9121
418.5213
505.3296
563.5126
593.4479
631.2764
0.299401 0.518577 0.187701
355.8408
390.9729
524.9881
583.4172
618.1552
626.5222
0.299401 0.518577 0.250268
340.2508
360.8863
544.3314
579.4277
629.7672
630.7734
0.299401 0.518577 -0.312835
340.4546
340.4546
563.0863
563.0863
633.3161
633.3161
P	=	3399.69	V	=	88.84185	E	=	-655.07999042
0.0 0.0 0.0
-0.0
-0.0
0.0
390.8217
390.8217
721.1302
0.0 0.0 0.062562
63.8647
63.8647
132.1533
387.0952
387.0952
711.4745
0.0 0.0 0.125125
122.3128
122.3128
258.7266
374.2513
374.2513
685.3189
0.0 0.0 0.187687
173.9641
173.9641
349.5037
349.5037
373.201
648.2158
0.0 0.0 0.25025
221.7662
221.7662
312.9106
312.9106
469.4699
602.5862
0.0 0.0 -0.312812
268.609
268.609
268.609
268.609
544.9814
544.9814
0.0 0.115247 0.0
89.5706
116.5696
229.4924
406.9751
432.0715
704.509
0.0 0.115247 0.062562
124.0199
134.1044
256.1208
403.5558
428.215
696.7085
0.0 0.115247 0.125125
172.0751
179.2264
323.9734
391.7379
414.8662
675.2
0.0 0.115247 0.187687
213.5879
226.8609
368.9886
389.3648
407.2396
643.572
0.0 0.115247 0.25025
254.5751
269.085
335.6183
352.9519
485.968
603.1198
0.0 0.115247 -0.312812
295.8235
295.8235
311.0818
311.0818
551.5641
551.5641
0.0 0.230495 0.0
182.9143
212.5379
415.1386
441.679
517.4595
660.611
0.0 0.230495 0.062562
196.819
223.8163
429.4907
438.8553
511.1103
659.575
0.0 0.230495 0.125125
230.8817
250.956
429.0003
464.0299
492.1417
654.6869
0.0 0.230495 0.187687
272.4901
283.2584
409.9453
455.6415
509.8145
642.305
0.0 0.230495 0.25025
316.1494
316.3459
382.1817
411.5628
551.5929
620.2509
0.0 0.230495 -0.312812
349.545
349.545
363.0932
363.0932
589.2548
589.2548
0.0 0.345742 0.0
274.7301
275.2543
472.9296
532.1873
594.1599
603.7782
0.0 0.345742 0.062562
279.7347
283.6805
470.5299
539.9563
569.5247
629.8189
0.0 0.345742 0.125125
291.5326
306.0032
462.0548
524.3098
576.2821
653.4751
0.0 0.345742 0.187687
309.6511
333.7469
445.4781
483.0515
604.1393
664.3083
0.0 0.345742 0.25025
338.1566
362.7602
421.1415
432.5945
628.7665
661.1881
0.0 0.345742 -0.312812
380.7626
380.7626
392.3602
392.3602
648.0601
648.0601
0.0 0.46099 0.0
303.5623
353.4748
491.1555
549.5858
587.6623
638.373
0.0 0.46099 0.062562
311.0934
352.5926
488.8878
538.9581
600.2805
650.5736
0.0 0.46099 0.125125
330.502
349.97
480.8463
515.7218
626.2437
674.2347
0.0 0.46099 0.187687
349.0235
355.9422
464.9842
481.2245
652.7716
691.3357
0.0 0.46099 0.25025
359.7592
383.9219
436.1861
441.4022
673.5839
695.108
0.0 0.46099 -0.312812
390.6802
390.6802
413.1258
413.1258
687.9417
687.9417
0.0 -0.576237 0.0
310.6787
390.6363
496.7702
521.3457
603.0181
651.0373
0.0 -0.576237 0.062562
317.6697
386.4171
494.5049
518.0678
614.079
661.2974
0.0 -0.576237 0.125125
335.9961
376.3417
486.476
504.989
639.4055
683.5601
0.0 -0.576237 0.187687
360.7179
367.1202
470.6061
477.4352
665.78
701.5868
0.0 -0.576237 0.25025
370.3571
388.6781
436.972
446.8854
686.4337
706.7498
0.0 -0.576237 -0.312812
395.6263
395.6263
418.263
418.263
700.4476
700.4476
0.099807 0.172871 0.0
157.014
202.4818
358.0925
444.9549
488.0408
674.1443
0.099807 0.172871 0.062562
173.5408
214.2795
374.416
443.0405
482.7935
670.4965
0.099807 0.172871 0.125125
212.2056
242.2985
408.3829
441.8133
465.6546
659.378
0.099807 0.172871 0.187687
256.3829
275.049
405.4774
435.2598
477.936
640.0779
0.099807 0.172871 0.25025
299.3587
307.5845
379.6062
394.7494
528.1095
611.6402
0.099807 0.172871 -0.312812
331.7903
331.7903
358.8478
358.8478
573.8981
573.8981
0.099807 0.288118 0.0
240.7242
283.6727
444.1849
519.6476
558.9617
623.1191
0.099807 0.288118 0.062562
245.4034
293.5108
451.0126
521.8218
547.5423
632.3646
0.099807 0.288118 0.125125
259.6316
316.901
457.9016
509.6799
545.9317
645.5081
0.099807 0.288118 0.187687
282.5196
343.8791
447.8207
473.5886
570.6692
648.9713
0.099807 0.288118 0.25025
314.575
367.0704
418.5181
438.3535
597.9254
640.0337
0.099807 0.288118 -0.312812
354.1387
354.1387
412.1721
412.1721
621.7791
621.7791
0.099807 0.403366 0.0
320.961
329.723
487.2657
565.7827
571.7841
619.1555
0.099807 0.403366 0.062562
316.3942
342.0669
488.8218
545.1378
587.9175
632.8213
0.099807 0.403366 0.125125
314.2333
363.9511
482.6979
522.1143
608.5419
656.7243
0.099807 0.403366 0.187687
317.1639
387.482
457.5196
499.94
631.99
672.1838
0.099807 0.403366 0.25025
331.475
397.4351
431.2261
474.8701
651.9599
674.3681
0.099807 0.403366 -0.312812
362.7
362.7
448.4184
448.4184
666.3989
666.3989
0.099807 0.518613 0.0
346.7213
380.4499
507.3762
518.6591
592.957
647.395
0.099807 0.518613 0.062562
348.165
382.6338
495.3013
526.2022
604.3726
655.3423
0.099807 0.518613 0.125125
347.1601
392.914
474.9952
527.4192
629.6473
674.0467
0.099807 0.518613 0.187687
342.6519
411.1802
446.7576
514.7203
655.6389
690.1539
0.099807 0.518613 0.25025
346.1523
405.4252
438.1307
491.3868
675.7224
694.8937
0.099807 0.518613 -0.312812
368.638
368.638
463.9113
463.9113
689.0301
689.0301
0.199614 0.345742 0.0
305.1254
367.2927
471.503
570.183
579.6252
597.2331
0.199614 0.345742 0.062562
303.5087
374.752
482.3428
539.5695
599.1225
610.047
0.199614 0.345742 0.125125
301.8129
392.0952
500.7388
504.6509
606.2256
638.6845
0.199614 0.345742 0.187687
304.7668
406.5426
470.309
505.4855
620.0771
654.6451
0.199614 0.345742 0.25025
319.1591
390.4667
460.0361
493.901
636.025
656.7217
0.199614 0.345742 -0.312812
350.4828
350.4828
475.2661
475.2661
649.0995
649.0995
0.199614 0.46099 0.0
363.66
415.3479
508.6181
514.0729
582.1596
637.7283
0.199614 0.46099 0.062562
357.4514
423.3684
497.7187
524.9719
596.9298
639.7388
0.199614 0.46099 0.125125
345.8176
435.2665
479.9594
543.7188
621.0265
648.3955
0.199614 0.46099 0.187687
335.1018
421.6044
481.1912
548.6765
639.5971
661.3759
0.199614 0.46099 0.25025
333.3458
385.3475
498.2627
537.1287
654.1789
667.0192
0.199614 0.46099 -0.312812
350.6773
350.6773
518.1246
518.1246
663.745
663.745
0.199614 0.576237 0.0
396.6527
427.4203
480.7609
533.546
573.2446
650.4482
0.199614 0.576237 0.062562
385.3568
441.6529
468.4506
548.8092
584.6467
652.1598
0.199614 0.576237 0.125125
368.0748
445.6633
465.0148
567.3299
610.8626
658.7636
0.199614 0.576237 0.187687
351.2533
415.8881
488.2002
567.7268
637.4473
668.3457
0.199614 0.576237 0.25025
342.0406
380.7851
510.3084
553.1065
656.6699
672.4196
0.199614 0.576237 -0.312812
351.7515
351.7515
532.2398
532.2398
668.15
668.15
0.299421 0.518613 0.0
404.572
460.095
485.6845
527.5914
559.8118
650.5726
0.299421 0.518613 0.062562
397.3015
447.9423
496.0741
543.2534
574.6165
648.5981
0.299421 0.518613 0.125125
381.3247
425.8904
514.2947
573.8928
604.6954
643.0695
0.299421 0.518613 0.187687
361.803
397.6615
534.3147
594.0298
629.9815
638.3926
0.299421 0.518613 0.25025
345.7981
366.851
554.0338
589.7947
641.8917
642.899
0.299421 0.518613 -0.312812
345.952
345.952
573.1398
573.1398
645.5223
645.5223
P	=	3599.89	V	=	87.68831	E	=	-655.05254958
0.0 0.0 0.0
-0.0
-0.0
0.0
396.4656
396.4656
735.211
0.0 0.0 0.062556
64.8538
64.8538
134.3754
392.6951
392.6951
725.3413
0.0 0.0 0.125111
124.158
124.158
263.09
379.6777
379.6777
698.5718
0.0 0.0 0.187667
176.5027
176.5027
354.5582
354.5582
379.554
660.5262
0.0 0.0 0.250222
224.9273
224.9273
317.3952
317.3952
477.6151
613.7058
0.0 0.0 -0.312778
272.4237
272.4237
272.4237
272.4237
554.7112
554.7112
0.0 0.115259 0.0
91.0748
118.0012
233.4279
412.8522
438.4521
718.2663
0.0 0.115259 0.062556
125.9606
135.8634
260.5969
409.3965
434.5815
710.2918
0.0 0.115259 0.125111
174.4609
181.9754
329.6716
397.4212
421.1047
688.2765
0.0 0.115259 0.187667
216.5611
230.2689
374.3128
395.2101
414.3968
655.8493
0.0 0.115259 0.250222
258.0948
273.0035
340.3837
358.1629
494.5919
614.3572
0.0 0.115259 -0.312778
299.9444
299.9444
315.5861
315.5861
561.5692
561.5692
0.0 0.230518 0.0
185.807
215.3314
422.4244
448.1537
525.6823
673.4518
0.0 0.230518 0.062556
199.9375
226.8316
437.0922
445.3092
519.3351
672.3499
0.0 0.230518 0.125111
234.6046
254.4416
435.3292
472.2019
500.3331
667.2547
0.0 0.230518 0.187667
276.9129
287.2021
415.9432
463.0517
518.9962
654.4732
0.0 0.230518 0.250222
320.5198
321.3995
387.6478
418.1745
561.5128
631.7863
0.0 0.230518 -0.312778
354.4204
354.4204
368.8474
368.8474
599.9925
599.9925
0.0 0.345777 0.0
278.7636
279.4039
480.1036
541.8452
604.6581
615.2816
0.0 0.345777 0.062556
284.0327
287.9019
477.6964
549.6499
579.9832
641.5494
0.0 0.345777 0.125111
296.2288
310.6245
469.1267
533.5408
587.0134
665.6858
0.0 0.345777 0.187667
314.8489
338.7439
452.2522
491.4909
615.2664
676.6919
0.0 0.345777 0.250222
343.9118
368.0916
427.4224
440.0447
640.2539
673.4021
0.0 0.345777 -0.312778
387.2572
387.2572
398.111
398.111
659.9173
659.9173
0.0 0.461036 0.0
308.5784
358.7336
498.8474
559.6814
598.8148
650.6436
0.0 0.461036 0.062556
316.2773
357.9717
496.5813
548.748
611.6367
663.1066
0.0 0.461036 0.125111
336.0381
355.6047
488.4695
524.8916
638.0085
687.2128
0.0 0.461036 0.187667
354.8969
361.7899
472.3451
489.609
664.9546
704.5555
0.0 0.461036 0.250222
365.9115
390.0283
443.6727
448.318
686.1363
708.2666
0.0 0.461036 -0.312778
397.3565
397.3565
419.5756
419.5756
700.8324
700.8324
0.0 -0.576295 0.0
316.0942
396.4621
504.6455
530.7204
614.7273
663.9453
0.0 -0.576295 0.062556
323.2451
392.3607
502.3853
527.2752
625.8775
674.4029
0.0 -0.576295 0.125111
341.9033
382.4673
494.2969
513.7764
651.485
697.0234
0.0 -0.576295 0.187667
366.9078
373.329
478.182
485.5913
678.2597
715.2505
0.0 -0.576295 0.250222
376.672
395.0919
444.3508
454.0412
699.3343
720.3393
0.0 -0.576295 -0.312778
402.3163
402.3163
424.9844
424.9844
713.7428
713.7428
0.099817 0.172888 0.0
159.548
205.1454
364.0668
451.7697
495.5381
687.281
0.099817 0.172888 0.062556
176.2954
217.1798
380.6894
449.9237
490.284
683.5324
0.099817 0.172888 0.125111
215.5547
245.6878
414.767
449.3136
473.0054
672.105
0.099817 0.172888 0.187667
260.3877
278.8923
411.3997
442.1552
486.5236
652.2699
0.099817 0.172888 0.250222
303.8985
311.8239
385.095
400.909
537.6155
623.0677
0.099817 0.172888 -0.312778
336.4682
336.4682
364.265
364.265
584.3909
584.3909
0.099817 0.288147 0.0
244.4397
287.6711
450.9918
528.7287
568.3812
635.122
0.099817 0.288147 0.062556
249.21
297.7328
457.8951
530.9842
557.0461
644.3972
0.099817 0.288147 0.125111
263.7611
321.5684
464.8407
518.3922
556.005
657.6659
0.099817 0.288147 0.187667
287.107
348.9131
454.6907
481.5805
581.1588
661.0954
0.099817 0.288147 0.250222
319.6506
372.3429
425.314
445.2141
608.8213
651.8536
0.099817 0.288147 -0.312778
359.6633
359.6633
418.4969
418.4969
633.1347
633.1347
0.099817 0.403406 0.0
325.8174
334.8324
494.8694
576.3744
582.2863
630.6464
0.099817 0.403406 0.062556
321.2441
347.4462
496.4793
555.0855
598.8989
644.6502
0.099817 0.403406 0.125111
319.2196
369.7709
490.4667
531.2794
619.9558
669.0624
0.099817 0.403406 0.187667
322.3527
393.601
465.1701
508.2808
643.7754
684.7845
0.099817 0.403406 0.250222
336.9273
403.6243
438.4445
482.5302
664.039
686.9287
0.099817 0.403406 -0.312778
368.593
368.593
455.5823
455.5823
678.741
678.741
0.099817 0.518665 0.0
352.5376
386.2399
515.4932
528.0468
604.3062
659.9706
0.099817 0.518665 0.062556
353.925
388.7346
503.5445
535.3101
615.8485
668.0995
0.099817 0.518665 0.125111
352.8402
399.5705
482.9229
536.3702
641.4625
687.1401
0.099817 0.518665 0.187667
348.3075
418.1452
454.173
523.3541
667.8704
703.4419
0.099817 0.518665 0.250222
351.8324
411.961
445.5161
499.5395
688.3492
708.1249
0.099817 0.518665 -0.312778
374.6016
374.6016
471.5913
471.5913
702.0063
702.0063
0.199634 0.345777 0.0
309.8266
372.8289
478.9492
580.9545
589.8229
608.2464
0.199634 0.345777 0.062556
308.2216
380.4632
490.0019
549.3373
610.2496
621.2436
0.199634 0.345777 0.125111
306.6202
398.1315
508.7105
513.6737
617.6256
650.4967
0.199634 0.345777 0.187667
309.7266
412.7178
478.6178
513.5057
631.7325
666.7624
0.199634 0.345777 0.250222
324.3485
396.5919
467.6413
501.6849
647.86
668.8531
0.199634 0.345777 -0.312778
356.1141
356.1141
482.7811
482.7811
661.0952
661.0952
0.199634 0.461036 0.0
369.3934
422.0885
517.0604
523.4857
592.8689
649.6328
0.199634 0.461036 0.062556
363.127
430.2721
506.4899
533.9863
607.9344
651.7335
0.199634 0.461036 0.125111
351.4102
442.3259
488.4486
552.9011
632.5362
660.6146
0.199634 0.461036 0.187667
340.5663
428.427
489.4834
557.8466
651.5265
673.7731
0.199634 0.461036 0.250222
338.713
391.5159
506.6116
546.0331
666.3653
679.4542
0.199634 0.461036 -0.312778
356.2525
356.2525
526.6957
526.6957
676.0925
676.0925
0.199634 0.576295 0.0
403.0336
434.6252
489.3767
542.5014
584.0154
662.6385
0.199634 0.576295 0.062556
391.5877
449.1949
476.6025
558.1953
595.5588
664.431
0.199634 0.576295 0.125111
374.1054
453.1675
473.0548
577.0723
622.1592
671.2432
0.199634 0.576295 0.187667
357.0112
422.6859
496.6048
577.4284
649.2016
680.9853
0.199634 0.576295 0.250222
347.5259
386.8368
518.9945
562.4956
668.8084
685.0359
0.199634 0.576295 -0.312778
357.2858
357.2858
541.245
541.245
680.5791
680.5791
0.299451 0.518665 0.0
411.3324
468.2579
494.05
536.8697
569.9363
662.368
0.299451 0.518665 0.062556
403.9235
455.6919
504.7357
552.8731
585.0543
660.3561
0.299451 0.518665 0.125111
387.6521
433.0697
523.2516
584.1125
615.7518
654.7436
0.299451 0.518665 0.187667
367.7171
404.1782
543.5298
604.4697
641.5293
650.0919
0.299451 0.518665 0.250222
351.2868
372.6681
563.5255
599.9836
653.7155
654.6859
0.299451 0.518665 -0.312778
351.3453
351.3453
582.9645
582.9645
657.3754
657.3754
P	=	3799.93	V	=	86.59485	E	=	-655.02504984
0.0 0.0 0.0
-0.0
-0.0
0.0
401.9846
401.9846
748.8954
0.0 0.0 0.062551
65.9363
65.9363
136.3921
398.1878
398.1878
738.8127
0.0 0.0 0.125101
126.1439
126.1439
267.1873
385.0363
385.0363
711.4661
0.0 0.0 0.187652
179.1667
179.1667
359.5806
359.5806
385.7428
672.5981
0.0 0.0 0.250203
228.1602
228.1602
321.8725
321.8725
485.7431
624.7553
0.0 0.0 -0.312753
276.2605
276.2605
276.2605
276.2605
564.4715
564.4715
0.0 0.115269 0.0
92.7187
119.4516
237.3596
418.6019
444.7379
731.6626
0.0 0.115269 0.062551
128.0308
137.6594
264.9598
415.1247
440.8515
723.5219
0.0 0.115269 0.125101
176.9033
184.814
335.1269
403.0255
427.2502
701.0294
0.0 0.115269 0.187652
219.5841
233.7143
379.5912
400.9825
421.3012
667.8579
0.0 0.115269 0.250203
261.6383
276.936
345.1265
363.3376
503.0062
625.3849
0.0 0.115269 -0.312753
304.0628
304.0628
320.0868
320.0868
571.3897
571.3897
0.0 0.230537 0.0
188.8631
218.138
429.6751
454.5011
533.8178
686.0195
0.0 0.230537 0.062551
203.271
229.8483
444.565
451.6416
527.4451
684.8694
0.0 0.230537 0.125101
238.4656
257.9073
441.5534
480.1159
508.3624
679.5709
0.0 0.230537 0.187652
281.2283
291.1137
421.8606
470.2983
527.8373
666.333
0.0 0.230537 0.250203
324.8551
326.1858
393.0578
424.59
571.0506
642.9376
0.0 0.230537 -0.312753
359.2556
359.2556
374.3422
374.3422
610.3189
610.3189
0.0 0.345806 0.0
282.7805
283.6335
487.1566
551.3767
615.0076
626.6059
0.0 0.345806 0.062551
288.4609
292.0925
484.7386
559.1661
590.2695
653.0929
0.0 0.345806 0.125101
301.0184
315.1922
476.0732
542.6101
597.4342
677.6616
0.0 0.345806 0.187652
319.8878
343.6816
458.9155
499.704
626.0257
688.7687
0.0 0.345806 0.250203
349.2457
373.3702
433.6217
447.1378
651.3548
685.2461
0.0 0.345806 -0.312753
393.2762
393.2762
403.8046
403.8046
671.3818
671.3818
0.0 0.461074 0.0
313.5447
363.9719
506.4236
569.6569
609.7045
662.6955
0.0 0.461074 0.062551
321.4015
363.3464
504.1528
558.4145
622.7076
675.4017
0.0 0.461074 0.125101
341.5018
361.2195
495.9641
533.9192
649.4409
699.9191
0.0 0.461074 0.187652
360.6471
367.5711
479.5897
497.8
676.7794
717.4679
0.0 0.461074 0.250203
371.81
396.0829
450.8945
455.1498
698.3276
721.0886
0.0 0.461074 -0.312753
403.7262
403.7262
425.97
425.97
713.37
713.37
0.0 -0.576343 0.0
321.4454
402.2231
512.4064
539.9946
626.105
676.6048
0.0 -0.576343 0.062551
328.7481
398.2362
510.1455
536.372
637.3408
687.2491
0.0 -0.576343 0.125101
347.7298
388.5137
501.9917
522.4297
663.221
710.2028
0.0 -0.576343 0.187652
373.028
379.4363
485.6457
493.5914
690.3914
728.605
0.0 -0.576343 0.250203
382.8548
401.455
451.5643
461.1174
711.8896
733.6017
0.0 -0.576343 -0.312753
408.8491
408.8491
431.6542
431.6542
726.7
726.7
0.099826 0.172903 0.0
162.2544
207.8428
370.0006
458.469
502.9496
700.119
0.099826 0.172903 0.062551
179.2645
220.0981
386.8328
456.6906
497.6703
696.285
0.099826 0.172903 0.125101
219.0356
249.0673
420.9576
456.6442
480.2262
684.5615
0.099826 0.172903 0.187652
264.3285
282.7107
417.2344
448.9197
494.794
664.1589
0.099826 0.172903 0.250203
308.2787
316.0354
390.5181
406.9384
546.7591
634.1352
0.099826 0.172903 -0.312753
341.0728
341.0728
369.5628
369.5628
594.4973
594.4973
0.099826 0.288172 0.0
248.2796
291.6837
457.7245
537.6684
577.6681
646.9194
0.099826 0.288172 0.062551
253.1944
301.945
464.6608
539.971
566.3916
656.2338
0.099826 0.288172 0.125101
268.0107
326.1848
471.6354
526.937
565.7983
669.5958
0.099826 0.288172 0.187652
291.5494
353.8747
461.4152
489.3771
591.3021
672.9074
0.099826 0.288172 0.250203
324.3621
377.5305
431.8676
451.9027
619.3306
663.2805
0.099826 0.288172 -0.312753
364.8624
364.8624
424.6579
424.6579
644.0752
644.0752
0.099826 0.40344 0.0
330.7026
339.9088
502.3771
586.839
592.5579
641.9147
0.099826 0.40344 0.062551
326.1338
352.7863
504.0137
564.8881
609.6341
656.2489
0.099826 0.40344 0.125101
324.217
375.5196
498.0832
540.2857
631.0606
681.1415
0.099826 0.40344 0.187652
327.4147
399.6328
472.6388
516.4412
655.2138
697.0825
0.099826 0.40344 0.250203
342.1024
409.6665
445.4614
490.0288
675.7578
699.1475
0.099826 0.40344 -0.312753
374.1868
374.1868
462.607
462.607
690.7235
690.7235
0.099826 0.518709 0.0
358.2853
391.9887
523.4847
537.3472
615.343
672.2592
0.099826 0.518709 0.062551
359.6226
394.762
511.6736
544.2831
627.0091
680.5745
0.099826 0.518709 0.125101
358.4595
406.1076
490.7336
545.1433
652.9499
699.9489
0.099826 0.518709 0.187652
353.8861
424.9968
461.4616
531.8223
679.7654
716.4312
0.099826 0.518709 0.250203
357.4274
418.3968
452.7931
507.566
700.6434
721.0451
0.099826 0.518709 -0.312753
380.4729
380.4729
479.1735
479.1735
714.6606
714.6606
0.199651 0.345806 0.0
314.5851
378.3443
486.3302
591.601
599.8013
618.9988
0.199651 0.345806 0.062551
313.0129
386.1277
497.5415
558.9498
621.1082
632.2368
0.199651 0.345806 0.125101
311.4555
404.0838
516.4951
522.5274
628.7375
662.0613
0.199651 0.345806 0.187652
314.5433
418.8094
486.7046
521.3365
643.0727
678.5733
0.199651 0.345806 0.250203
329.2362
402.5289
475.0646
509.3165
659.3498
680.6308
0.199651 0.345806 -0.312753
361.4321
361.4321
490.162
490.162
672.7262
672.7262
0.199651 0.461074 0.0
375.1257
428.7375
525.3873
532.8332
603.2944
661.1777
0.199651 0.461074 0.062551
368.7774
437.0733
515.1388
542.8483
618.6655
663.3956
0.199651 0.461074 0.125101
356.9263
449.2954
496.7436
561.8653
643.7571
672.5468
0.199651 0.461074 0.187652
345.9364
435.1713
497.5759
566.815
663.1585
685.8891
0.199651 0.461074 0.250203
344.0175
397.6249
514.811
554.7905
678.2546
691.6039
0.199651 0.461074 -0.312753
361.7881
361.7881
535.1434
535.1434
688.1501
688.1501
0.199651 0.576343 0.0
409.3892
441.7065
497.9502
551.2952
594.4884
674.4305
0.199651 0.576343 0.062551
397.7573
456.5785
484.6757
567.3906
606.1785
676.3409
0.199651 0.576343 0.125101
380.029
460.5599
480.8982
586.5809
633.1606
683.4249
0.199651 0.576343 0.187652
362.7083
429.4116
504.8245
586.9322
660.6617
693.3551
0.199651 0.576343 0.250203
353.077
392.9296
527.5347
571.7452
680.674
697.3976
0.199651 0.576343 -0.312753
362.9435
362.9435
550.1299
550.1299
692.7554
692.7554
0.299477 0.518709 0.0
418.0844
476.3981
502.2081
545.987
579.8152
673.7077
0.299477 0.518709 0.062551
410.4736
463.3652
513.1675
562.3086
595.2541
671.7015
0.299477 0.518709 0.125101
393.8437
440.1275
531.9568
594.0991
626.5532
666.1015
0.299477 0.518709 0.187652
373.5751
410.6441
552.5033
614.6889
652.8293
661.5467
0.299477 0.518709 0.250203
356.9115
378.6096
572.8061
610.0031
665.3296
666.2691
0.299477 0.518709 -0.312753
356.9743
356.9743
592.6141
592.6141
669.0463
669.0463
P	=	3999.91	V	=	85.55572	E	=	-654.99750244
0.0 0.0 0.0
-0.0
-0.0
0.0
407.3972
407.3972
762.226
0.0 0.0 0.062546
66.7708
66.7708
138.3985
403.5308
403.5308
751.946
0.0 0.0 0.125091
127.76
127.76
271.2044
390.1628
390.1628
724.0446
0.0 0.0 0.187637
181.4961
181.4961
364.3354
364.3354
391.7223
684.3409
0.0 0.0 0.250182
231.1574
231.1574
326.1164
326.1164
493.5351
635.43
0.0 0.0 -0.312728
279.9016
279.9016
279.9016
279.9016
573.8371
573.8371
0.0 0.115278 0.0
94.2743
120.8466
241.1028
424.2478
450.8389
744.7154
0.0 0.115278 0.062546
129.9202
139.3016
269.1425
420.7124
446.9107
736.409
0.0 0.115278 0.125091
179.0747
187.3689
340.4132
408.421
433.1378
713.4459
0.0 0.115278 0.187637
222.3382
236.8759
384.6335
406.4795
428.0307
679.5521
0.0 0.115278 0.250182
264.9815
280.6356
349.6657
368.2676
511.2216
636.1361
0.0 0.115278 -0.312728
308.0111
308.0111
324.3732
324.3732
580.9767
580.9767
0.0 0.230556 0.0
191.7956
220.8476
436.6135
460.6857
541.6045
698.2663
0.0 0.230556 0.062546
206.3482
232.7228
451.7491
457.7875
535.2114
697.0363
0.0 0.230556 0.125091
241.9695
261.1639
447.5495
487.7519
516.0845
691.5099
0.0 0.230556 0.187637
285.3017
294.8086
427.5416
477.2209
536.5043
677.8878
0.0 0.230556 0.250182
329.0089
330.8638
398.2657
430.7802
580.4823
653.9198
0.0 0.230556 -0.312728
363.9215
363.9215
379.7209
379.7209
620.5614
620.5614
0.0 0.345834 0.0
286.6279
287.7445
493.8911
560.4902
624.9082
637.6332
0.0 0.345834 0.062546
292.655
296.0847
491.4463
568.2469
600.2204
664.2235
0.0 0.345834 0.125091
305.4522
319.5152
482.6615
551.257
607.5521
689.1884
0.0 0.345834 0.187637
324.6802
348.363
465.2297
507.5901
636.5085
700.4554
0.0 0.345834 0.250182
354.5394
378.4052
439.5195
454.0805
662.2301
696.8113
0.0 0.345834 -0.312728
399.2966
399.2966
409.2442
409.2442
682.6357
682.6357
0.0 0.461112 0.0
318.2191
369.0961
513.5229
579.3584
620.051
674.3174
0.0 0.461112 0.062546
326.2106
368.5378
511.2314
567.7682
633.2546
687.2442
0.0 0.461112 0.125091
346.6134
366.5467
502.9428
542.611
660.3572
712.1465
0.0 0.461112 0.187637
366.1175
372.9919
486.3334
505.6977
688.1208
729.9232
0.0 0.461112 0.250182
377.5341
401.7832
457.9239
461.5401
710.0966
733.5059
0.0 0.461112 -0.312728
409.9726
409.9726
431.986
431.986
725.5238
725.5238
0.0 -0.576389 0.0
326.4353
407.8682
519.6273
549.0059
636.8851
688.8588
0.0 -0.576389 0.062546
333.8682
403.9482
517.3478
545.199
648.1911
699.662
0.0 -0.576389 0.125091
353.1403
394.3058
509.1026
530.7971
674.3289
722.9115
0.0 -0.576389 0.187637
378.728
385.2474
492.5394
501.3106
701.928
741.4887
0.0 -0.576389 0.250182
388.7729
407.4058
458.5311
467.6864
723.9251
746.414
0.0 -0.576389 -0.312728
415.1518
415.1518
437.8848
437.8848
739.1983
739.1983
0.099834 0.172917 0.0
164.8419
210.4668
375.6746
465.0233
510.0422
712.6294
0.099834 0.172917 0.062546
181.9864
222.8937
392.7327
463.2953
504.73
708.688
0.099834 0.172917 0.125091
222.1771
252.2543
426.9137
463.7932
487.1073
696.6525
0.099834 0.172917 0.187637
268.0138
286.3354
422.8589
455.3559
502.8973
675.7459
0.099834 0.172917 0.250182
312.4924
320.0993
395.773
412.7009
555.7957
645.0232
0.099834 0.172917 -0.312728
345.5348
345.5348
374.6875
374.6875
604.5088
604.5088
0.099834 0.288195 0.0
252.0011
295.5993
464.2066
546.2611
586.5126
658.4109
0.099834 0.288195 0.062546
256.931
306.0316
471.1782
548.5774
575.3615
667.7014
0.099834 0.288195 0.125091
271.8985
330.6288
478.1611
535.0395
575.3348
681.1083
0.099834 0.288195 0.187637
295.7589
358.6638
467.8488
496.8352
601.2229
684.364
0.099834 0.288195 0.250182
329.0243
382.5859
438.1711
458.417
629.6671
674.4744
0.099834 0.288195 -0.312728
370.0105
370.0105
430.6738
430.6738
654.8573
654.8573
0.099834 0.403473 0.0
335.4794
344.809
509.512
597.021
602.3096
652.7772
0.099834 0.403473 0.062546
330.8143
357.9408
511.1595
574.304
619.9629
667.4067
0.099834 0.403473 0.125091
328.908
381.0341
505.2633
548.931
641.7727
692.7461
0.099834 0.403473 0.187637
332.221
405.4234
479.7001
524.2829
666.28
708.9339
0.099834 0.403473 0.250182
347.1611
415.5202
452.1877
497.2429
687.1361
710.9881
0.099834 0.403473 -0.312728
379.6949
379.6949
469.3723
469.3723
702.3729
702.3729
0.099834 0.51875 0.0
363.7613
397.625
530.9812
546.3876
625.8081
684.187
0.099834 0.51875 0.062546
365.0333
400.625
519.3419
552.94
637.5963
692.656
0.099834 0.51875 0.125091
363.7769
412.3738
498.1053
553.544
663.8627
712.3153
0.099834 0.51875 0.187637
359.1718
431.5178
468.3635
539.8798
691.11
728.9649
0.099834 0.51875 0.250182
362.7746
424.5502
459.7005
515.1798
712.4388
733.5181
0.099834 0.51875 -0.312728
386.1148
386.1148
486.3671
486.3671
726.8591
726.8591
0.199667 0.345834 0.0
319.2409
383.7613
493.406
601.9614
609.1589
629.467
0.199667 0.345834 0.062546
317.6047
391.6706
504.7819
568.1192
631.6808
642.7352
0.199667 0.345834 0.125091
315.9896
409.8739
523.9727
530.9329
639.5604
673.1158
0.199667 0.345834 0.187637
319.1354
424.7196
494.4181
528.8689
654.119
689.9118
0.199667 0.345834 0.250182
334.0571
408.3147
482.25
516.6941
670.5391
692.0148
0.199667 0.345834 -0.312728
366.711
366.711
497.3263
497.3263
684.0295
684.0295
0.199667 0.461112 0.0
380.7518
435.2109
533.3428
541.9245
613.1254
672.4583
0.199667 0.461112 0.062546
374.2633
443.6852
523.4413
551.3896
628.8466
674.7605
0.199667 0.461112 0.125091
362.2076
456.0201
504.6931
570.4803
654.4921
684.0907
0.199667 0.461112 0.187637
351.0669
441.6311
505.3517
575.4148
674.3406
697.5482
0.199667 0.461112 0.250182
349.1225
403.5009
522.6853
563.1817
689.6926
703.2832
0.199667 0.461112 -0.312728
367.1374
367.1374
543.2463
543.2463
699.7452
699.7452
0.199667 0.576389 0.0
415.6237
448.5605
506.2908
559.6366
604.4554
685.9729
0.199667 0.576389 0.062546
403.7547
463.7454
492.4663
576.1849
616.2902
687.9645
0.199667 0.576389 0.125091
385.7331
467.6444
488.4761
595.7061
643.6503
695.244
0.199667 0.576389 0.187637
368.1543
435.8351
512.7124
596.0228
671.604
705.3008
0.199667 0.576389 0.250182
358.357
398.7354
535.6904
580.5603
692.0214
709.2891
0.199667 0.576389 -0.312728
368.3218
368.3218
558.5934
558.5934
704.4285
704.4285
0.299501 0.51875 0.0
424.6982
484.3304
510.0908
554.7555
589.2225
684.8467
0.299501 0.51875 0.062546
416.8628
470.8044
521.3124
571.4112
605.0051
682.8145
0.299501 0.51875 0.125091
399.838
446.9348
540.3241
603.7467
636.9202
677.1542
0.299501 0.51875 0.187637
379.1936
416.8434
561.0951
624.5178
663.6621
672.619
0.299501 0.51875 0.250182
362.2485
384.2582
581.6787
619.5987
676.477
677.3373
0.299501 0.51875 -0.312728
362.2925
362.2925
601.8401
601.8401
680.1954
680.1954

weight
   0.0000000   0.0000000   0.0000000   0.0020000   
   0.0000000   0.0000000   0.1000000   0.0040000   
   0.0000000   0.0000000   0.2000000   0.0040000   
   0.0000000   0.0000000   0.3000000   0.0040000   
   0.0000000   0.0000000   0.4000000   0.0040000   
   0.0000000   0.0000000  -0.5000000   0.0020000   
   0.0000000   0.1000000   0.0000000   0.0120000   
   0.0000000   0.1000000   0.1000000   0.0240000   
   0.0000000   0.1000000   0.2000000   0.0240000   
   0.0000000   0.1000000   0.3000000   0.0240000   
   0.0000000   0.1000000   0.4000000   0.0240000   
   0.0000000   0.1000000  -0.5000000   0.0120000   
   0.0000000   0.2000000   0.0000000   0.0120000   
   0.0000000   0.2000000   0.1000000   0.0240000   
   0.0000000   0.2000000   0.2000000   0.0240000   
   0.0000000   0.2000000   0.3000000   0.0240000   
   0.0000000   0.2000000   0.4000000   0.0240000   
   0.0000000   0.2000000  -0.5000000   0.0120000   
   0.0000000   0.3000000   0.0000000   0.0120000   
   0.0000000   0.3000000   0.1000000   0.0240000   
   0.0000000   0.3000000   0.2000000   0.0240000   
   0.0000000   0.3000000   0.3000000   0.0240000   
   0.0000000   0.3000000   0.4000000   0.0240000   
   0.0000000   0.3000000  -0.5000000   0.0120000   
   0.0000000   0.4000000   0.0000000   0.0120000   
   0.0000000   0.4000000   0.1000000   0.0240000   
   0.0000000   0.4000000   0.2000000   0.0240000   
   0.0000000   0.4000000   0.3000000   0.0240000   
   0.0000000   0.4000000   0.4000000   0.0240000   
   0.0000000   0.4000000  -0.5000000   0.0120000   
   0.0000000  -0.5000000   0.0000000   0.0060000   
   0.0000000  -0.5000000   0.1000000   0.0120000   
   0.0000000  -0.5000000   0.2000000   0.0120000   
   0.0000000  -0.5000000   0.3000000   0.0120000   
   0.0000000  -0.5000000   0.4000000   0.0120000   
   0.0000000  -0.5000000  -0.5000000   0.0060000   
   0.1000000   0.1000000   0.0000000   0.0120000   
   0.1000000   0.1000000   0.1000000   0.0240000   
   0.1000000   0.1000000   0.2000000   0.0240000   
   0.1000000   0.1000000   0.3000000   0.0240000   
   0.1000000   0.1000000   0.4000000   0.0240000   
   0.1000000   0.1000000  -0.5000000   0.0120000   
   0.1000000   0.2000000   0.0000000   0.0240000   
   0.1000000   0.2000000   0.1000000   0.0480000   
   0.1000000   0.2000000   0.2000000   0.0480000   
   0.1000000   0.2000000   0.3000000   0.0480000   
   0.1000000   0.2000000   0.4000000   0.0480000   
   0.1000000   0.2000000  -0.5000000   0.0240000   
   0.1000000   0.3000000   0.0000000   0.0240000   
   0.1000000   0.3000000   0.1000000   0.0480000   
   0.1000000   0.3000000   0.2000000   0.0480000   
   0.1000000   0.3000000   0.3000000   0.0480000   
   0.1000000   0.3000000   0.4000000   0.0480000   
   0.1000000   0.3000000  -0.5000000   0.0240000   
   0.1000000   0.4000000   0.0000000   0.0240000   
   0.1000000   0.4000000   0.1000000   0.0480000   
   0.1000000   0.4000000   0.2000000   0.0480000   
   0.1000000   0.4000000   0.3000000   0.0480000   
   0.1000000   0.4000000   0.4000000   0.0480000   
   0.1000000   0.4000000  -0.5000000   0.0240000   
   0.2000000   0.2000000   0.0000000   0.0120000   
   0.2000000   0.2000000   0.1000000   0.0240000   
   0.2000000   0.2000000   0.2000000   0.0240000   
   0.2000000   0.2000000   0.3000000   0.0240000   
   0.2000000   0.2000000   0.4000000   0.0240000   
   0.2000000   0.2000000  -0.5000000   0.0120000   
   0.2000000   0.3000000   0.0000000   0.0240000   
   0.2000000   0.3000000   0.1000000   0.0480000   
   0.2000000   0.3000000   0.2000000   0.0480000   
   0.2000000   0.3000000   0.3000000   0.0480000   
   0.2000000   0.3000000   0.4000000   0.0480000   
   0.2000000   0.3000000  -0.5000000   0.0240000   
   0.2000000   0.4000000   0.0000000   0.0120000   
   0.2000000   0.4000000   0.1000000   0.0240000   
   0.2000000   0.4000000   0.2000000   0.0240000   
   0.2000000   0.4000000   0.3000000   0.0240000   
   0.2000000   0.4000000   0.4000000   0.0240000   
   0.2000000   0.4000000  -0.5000000   0.0120000   
   0.3000000   0.3000000   0.0000000   0.0120000   
   0.3000000   0.3000000   0.1000000   0.0240000   
   0.3000000   0.3000000   0.2000000   0.0240000   
   0.3000000   0.3000000   0.3000000   0.0240000   
   0.3000000   0.3000000   0.4000000   0.0240000   
   0.3000000   0.3000000  -0.5000000   0.0120000   