Number of volumes (nv), q-vectors (nq), normal mode (np), formula units(nm)
23 84 6 1

P	=	0.12	V	=	145.10888	E	=	-655.52985471
0.0 0.0 0.0
-0.0
-0.0
0.0
172.9807
172.9807
282.6428
0.0 0.0 0.062367
27.0266
27.0266
56.9938
170.8427
170.8427
281.5616
0.0 0.0 0.124735
52.7676
52.7676
110.6902
164.2829
164.2829
277.5627
0.0 0.0 0.187102
76.6392
76.6392
153.1569
153.1569
158.4404
268.8462
0.0 0.0 0.24947
98.7811
98.7811
137.8441
137.8441
198.5641
253.5211
0.0 0.0 -0.311837
119.3415
119.3415
119.3624
119.3624
230.2836
230.284
0.0 0.115461 0.0
48.0873
53.2945
100.1948
179.9352
192.8995
279.0778
0.0 0.115461 0.062367
60.028
62.7382
110.1326
178.0222
190.9286
278.1271
0.0 0.115461 0.124735
75.8503
85.8927
137.8832
172.2718
184.8158
274.5989
0.0 0.115461 0.187102
94.8173
106.0811
162.5307
173.2413
174.639
266.9021
0.0 0.115461 0.24947
114.0921
125.0009
149.0458
160.7453
206.5552
253.3828
0.0 0.115461 -0.311837
132.4595
132.638
143.3006
144.2078
233.057
233.6994
0.0 0.230923 0.0
93.4998
96.5066
179.9853
194.4973
230.8939
269.2377
0.0 0.230923 0.062367
99.0323
100.7188
185.2142
193.0618
228.1785
269.3961
0.0 0.230923 0.124735
111.8117
113.355
188.7747
198.8317
220.3125
268.8957
0.0 0.230923 0.187102
126.7341
131.6165
181.4911
208.1674
217.1433
265.8689
0.0 0.230923 0.24947
142.7448
151.1914
171.1719
192.863
235.4402
258.9528
0.0 0.230923 -0.311837
157.8583
158.1629
171.1804
174.6276
247.9099
250.4578
0.0 0.346384 0.0
123.2967
133.1081
206.9061
229.1058
255.4174
258.7343
0.0 0.346384 0.062367
126.75
133.2802
205.7545
232.9899
246.0616
265.9236
0.0 0.346384 0.124735
135.8533
136.2842
202.291
231.7311
243.6785
271.9131
0.0 0.346384 0.187102
144.0798
149.6782
196.5559
215.8604
255.1174
275.0425
0.0 0.346384 0.24947
158.4041
164.1878
188.3661
197.531
265.4272
274.9512
0.0 0.346384 -0.311837
176.5004
177.3925
177.5852
178.2097
271.3398
272.6169
0.0 0.461846 0.0
134.433
163.0441
213.5446
241.0987
251.4792
268.894
0.0 0.461846 0.062367
137.5733
159.6979
212.3749
235.7178
255.4574
271.9826
0.0 0.461846 0.124735
146.529
153.5281
208.9514
223.6
264.2676
277.283
0.0 0.461846 0.187102
152.3336
159.4713
203.608
207.6829
273.1544
281.8664
0.0 0.461846 0.24947
159.706
173.594
189.651
196.1927
279.5375
284.5508
0.0 0.461846 -0.311837
171.717
174.0102
186.115
186.3246
282.9478
284.2248
0.0 -0.577307 0.0
136.7024
175.7639
215.4275
233.6131
257.5425
269.6936
0.0 -0.577307 0.062367
139.7905
170.9169
214.1327
228.8257
261.4298
272.3921
0.0 -0.577307 0.124735
148.5871
161.4521
210.5726
217.2734
269.6588
277.7907
0.0 -0.577307 0.187102
155.9299
161.4151
202.2762
205.2361
277.7051
282.6186
0.0 -0.577307 0.24947
159.0116
175.4915
185.8679
197.9867
283.1825
285.7365
0.0 -0.577307 -0.311837
168.0547
172.4043
187.9319
188.325
284.7002
287.2031
0.099993 0.173192 0.0
81.8494
93.643
155.6167
195.6952
218.1724
272.373
0.099993 0.173192 0.062367
88.437
97.8974
161.9085
194.4332
215.8652
271.8936
0.099993 0.173192 0.124735
104.2695
109.0727
177.4563
191.4841
209.0229
269.9184
0.099993 0.173192 0.187102
123.6763
123.8498
180.387
197.9392
203.1331
265.1799
0.099993 0.173192 0.24947
139.2648
143.3554
171.0005
183.3619
224.3535
256.3798
0.099993 0.173192 -0.311837
151.436
153.17
167.6018
168.4448
242.5293
242.9212
0.099993 0.288654 0.0
120.4269
130.4742
197.6147
221.8214
246.1306
260.5105
0.099993 0.288654 0.062367
120.7422
134.3125
200.4042
222.776
240.4916
263.7162
0.099993 0.288654 0.124735
124.7533
143.7714
203.1992
226.245
231.0364
267.719
0.099993 0.288654 0.187102
135.1387
155.9249
199.7213
213.7964
240.8758
269.17
0.099993 0.288654 0.24947
150.7259
167.8115
190.2921
200.009
253.1761
267.1851
0.099993 0.288654 -0.311837
165.7923
168.6928
186.9736
189.1107
261.436
262.7162
0.099993 0.404115 0.0
149.4467
154.0325
216.7307
243.5373
246.1265
263.5509
0.099993 0.404115 0.062367
147.5125
156.11
216.6273
238.8928
247.7033
267.5716
0.099993 0.404115 0.124735
143.5615
163.6471
213.174
228.1737
255.374
273.4011
0.099993 0.404115 0.187102
144.4515
174.5798
202.4165
218.7417
264.7646
277.6118
0.099993 0.404115 0.24947
153.1297
181.2202
191.4114
210.5435
272.5747
279.2825
0.099993 0.404115 -0.311837
166.2676
167.5204
200.4118
201.0199
277.4914
277.6655
0.099993 0.519577 0.0
155.4229
176.3987
223.1233
233.686
254.0577
268.5548
0.099993 0.519577 0.062367
156.6832
172.9957
219.9196
231.1761
257.9891
271.0359
0.099993 0.519577 0.124735
155.1431
172.4243
209.8874
226.6553
266.4699
275.9391
0.099993 0.519577 0.187102
151.0025
181.546
195.2224
221.1159
274.6524
280.608
0.099993 0.519577 0.24947
153.7986
178.1332
193.8608
214.0995
280.0925
283.7734
0.099993 0.519577 -0.311837
162.0733
164.922
204.8588
205.1639
282.4051
284.4045
0.199985 0.346384 0.0
150.9295
169.2918
213.4237
247.5141
247.9218
253.1258
0.199985 0.346384 0.062367
147.533
171.7976
217.4825
237.3121
247.9437
261.0173
0.199985 0.346384 0.124735
142.3228
178.5235
222.1974
223.8521
250.7701
268.2613
0.199985 0.346384 0.187102
142.2672
186.312
206.7467
224.8178
257.8272
272.6605
0.199985 0.346384 0.24947
150.0179
180.6276
204.5633
220.4889
265.8983
273.888
0.199985 0.346384 -0.311837
163.2757
165.068
212.5888
213.4083
271.5606
271.6913
0.199985 0.461846 0.0
177.4252
188.4034
230.6173
233.8012
251.3742
263.0033
0.199985 0.461846 0.062367
171.0222
191.4983
225.0531
235.4249
254.922
264.9548
0.199985 0.461846 0.124735
159.6327
197.2282
211.3856
239.7045
260.3717
269.9464
0.199985 0.461846 0.187102
151.6131
190.4218
209.7804
239.0642
267.2602
274.7806
0.199985 0.461846 0.24947
151.4846
173.3149
218.8833
234.6589
273.1375
277.5076
0.199985 0.461846 -0.311837
158.6738
159.7356
227.6358
227.7712
276.4477
277.2301
0.199985 0.577307 0.0
190.6049
192.4576
225.0041
239.5272
249.5449
266.8433
0.199985 0.577307 0.062367
182.0533
197.3411
216.9016
243.118
253.8072
268.0294
0.199985 0.577307 0.124735
168.8307
201.8515
204.2706
245.03
262.4617
271.557
0.199985 0.577307 0.187102
157.41
185.0354
213.1852
242.969
270.5647
275.7052
0.199985 0.577307 0.24947
152.7641
169.0307
222.7601
238.2576
276.0538
278.5105
0.199985 0.577307 -0.311837
156.0748
158.151
231.2951
231.545
277.9323
279.5011
0.299978 0.519577 0.0
198.5447
213.9711
219.3274
240.3232
249.6921
265.5435
0.299978 0.519577 0.062367
191.4589
210.7651
217.0373
245.4374
254.7174
264.9012
0.299978 0.519577 0.124735
177.1894
195.8449
222.0633
253.5523
263.0362
264.0452
0.299978 0.519577 0.187102
163.4484
178.9718
229.5884
254.9825
267.3395
269.657
0.299978 0.519577 0.24947
155.0738
164.1647
237.72
251.0479
271.9865
273.4469
0.299978 0.519577 -0.311837
155.012
155.4964
245.0632
245.1589
274.0558
274.3477
P	=	500.01	V	=	124.31017	E	=	-655.49939368
0.0 0.0 0.0
0.0
0.0
0.0
226.8142
226.8142
396.5593
0.0 0.0 0.062413
35.0645
35.0645
76.6138
224.0152
224.0152
394.2439
0.0 0.0 0.124826
68.7237
68.7237
149.4516
215.4626
215.4626
386.7161
0.0 0.0 0.187239
100.2679
100.2679
201.0083
201.0083
215.1521
372.4363
0.0 0.0 0.249653
129.6716
129.6716
181.0899
181.0899
271.1523
349.4388
0.0 0.0 -0.312066
156.8565
156.8565
156.8782
156.8782
315.9308
316.046
0.0 0.11538 0.0
64.1334
69.83
135.8366
236.5169
254.9252
391.1251
0.0 0.11538 0.062413
78.4888
82.1429
149.6873
234.0338
252.1646
389.0545
0.0 0.11538 0.124826
99.1657
111.6458
187.7539
226.4465
243.8027
382.3712
0.0 0.11538 0.187239
124.1796
138.6404
213.5717
230.0099
236.2362
369.7756
0.0 0.11538 0.249653
149.6976
164.2609
195.7487
211.5061
282.4538
349.5716
0.0 0.11538 -0.312066
174.0011
174.0293
188.7826
189.3945
320.3962
320.8523
0.0 0.230759 0.0
124.18
126.7742
244.9606
257.2922
309.6944
375.8547
0.0 0.230759 0.062413
130.7705
132.2144
252.0876
255.3997
305.7732
375.4087
0.0 0.230759 0.124826
146.738
148.7873
249.5294
270.7894
294.5806
373.3873
0.0 0.230759 0.187239
166.304
173.2093
239.4347
276.6942
296.632
368.0676
0.0 0.230759 0.249653
187.3804
200.229
225.1911
255.1816
322.1025
357.7974
0.0 0.230759 -0.312066
207.4264
207.5883
227.6733
229.9738
341.8432
343.6482
0.0 0.346139 0.0
162.6149
176.2593
276.0152
313.7341
352.8585
353.8178
0.0 0.346139 0.062413
167.175
176.4515
274.4126
318.6403
336.9804
366.389
0.0 0.346139 0.124826
179.6638
180.1924
269.4687
314.0273
334.5395
375.4994
0.0 0.346139 0.187239
191.7407
197.0664
261.0562
290.9107
350.3246
380.2726
0.0 0.346139 0.249653
211.6136
216.0614
249.0922
264.8855
365.1617
380.2066
0.0 0.346139 -0.312066
233.7564
234.0069
236.8127
238.0081
374.8649
375.8256
0.0 0.461519 0.0
178.0949
216.0874
287.0436
330.5512
346.5856
372.5356
0.0 0.461519 0.062413
182.3511
212.2787
285.3679
322.3265
352.2922
377.1509
0.0 0.461519 0.124826
194.1299
205.6603
280.395
304.4917
364.6636
385.5073
0.0 0.461519 0.187239
205.1706
210.8561
272.2791
281.9918
377.7966
392.4878
0.0 0.461519 0.249653
215.3485
229.2761
257.2581
260.98
388.0618
396.0207
0.0 0.461519 -0.312066
233.212
234.6151
246.4199
246.5659
393.9768
394.9521
0.0 -0.576899 0.0
181.4946
233.4468
290.4842
318.371
355.7249
376.553
0.0 -0.576899 0.062413
185.6533
227.8628
288.702
311.9988
361.1121
380.4108
0.0 -0.576899 0.124826
197.2543
217.0238
283.5457
296.3035
373.092
388.3244
0.0 -0.576899 0.187239
211.1325
213.8732
275.3222
275.6653
385.4235
395.5098
0.0 -0.576899 0.249653
216.1135
232.2746
252.9757
264.0454
394.5782
399.6378
0.0 -0.576899 -0.312066
230.2226
232.8796
249.5506
249.5669
398.4658
400.3896
0.099922 0.17307 0.0
108.8003
122.8984
210.4019
260.0467
291.1104
380.7562
0.099922 0.17307 0.062413
116.7262
128.4257
218.846
258.5552
287.794
379.5108
0.099922 0.17307 0.124826
136.5973
142.9619
237.7648
257.0841
278.0594
375.3896
0.099922 0.17307 0.187239
161.9613
162.3137
237.6396
262.5785
277.76
367.3136
0.099922 0.17307 0.249653
182.7999
187.9463
225.3004
242.6084
307.6071
353.8474
0.099922 0.17307 -0.312066
199.1435
200.3251
221.6529
222.26
333.8461
333.9253
0.099922 0.288449 0.0
159.4316
171.7855
263.3527
302.678
333.1285
361.9601
0.099922 0.288449 0.062413
159.4999
176.7957
266.503
304.448
325.8212
365.4814
0.099922 0.288449 0.124826
164.3979
189.135
269.4932
305.694
316.4257
370.4152
0.099922 0.288449 0.187239
178.0381
205.1949
264.9525
286.5516
330.7389
372.1328
0.099922 0.288449 0.249653
198.8632
220.8944
253.2036
266.1428
347.8565
369.0805
0.099922 0.288449 -0.312066
219.3272
221.4754
249.3208
250.8842
360.6531
361.5638
0.099922 0.403829 0.0
197.841
203.6887
289.6686
335.4569
338.6081
362.6253
0.099922 0.403829 0.062413
195.0061
207.0084
289.5633
326.4831
342.1684
368.9565
0.099922 0.403829 0.124826
190.2311
217.2191
285.3123
309.9079
352.4736
378.2407
0.099922 0.403829 0.187239
191.8856
231.4839
271.6764
294.977
365.5216
384.8108
0.099922 0.403829 0.249653
203.5628
240.2085
257.3027
282.2488
376.9941
387.2078
0.099922 0.403829 -0.312066
221.8851
222.8617
268.1228
268.5619
384.5136
384.6429
0.099922 0.519209 0.0
206.63
233.8835
300.4098
318.2899
350.2962
374.09
0.099922 0.519209 0.062413
207.9184
230.5672
295.958
314.8685
355.8684
377.5289
0.099922 0.519209 0.124826
205.8011
231.4911
282.3365
308.3398
368.005
384.7956
0.099922 0.519209 0.187239
201.5937
243.2169
262.7801
299.8351
380.4053
391.6366
0.099922 0.519209 0.249653
205.9125
239.4306
260.0967
288.9028
389.579
395.6233
0.099922 0.519209 -0.312066
218.7479
220.4651
275.213
275.618
394.1422
395.6544
0.199844 0.346139 0.0
199.2737
224.1235
284.8136
341.4074
342.5704
344.9856
0.199844 0.346139 0.062413
194.759
227.3462
290.1386
323.85
343.4353
358.8656
0.199844 0.346139 0.124826
187.9397
235.9325
298.6216
301.8688
347.646
370.2622
0.199844 0.346139 0.187239
188.1711
245.4924
280.319
300.5067
356.917
377.1476
0.199844 0.346139 0.249653
198.8816
239.2832
274.9238
294.9953
367.7679
379.0803
0.199844 0.346139 -0.312066
217.2587
218.6785
284.7027
285.4124
375.8086
375.8199
0.199844 0.461519 0.0
234.592
251.608
309.3374
318.1563
345.1719
365.4236
0.199844 0.461519 0.062413
226.1407
255.8848
304.1497
317.4818
351.7413
367.4269
0.199844 0.461519 0.124826
211.4585
262.8332
286.3677
323.6322
360.8371
373.7881
0.199844 0.461519 0.187239
201.4541
253.9044
283.7982
323.8282
370.2673
380.8646
0.199844 0.461519 0.249653
201.7504
231.7851
295.5626
317.8294
378.6874
384.8007
0.199844 0.461519 -0.312066
212.3713
213.0503
307.7739
307.903
383.69
384.2592
0.199844 0.576899 0.0
252.8385
257.9933
303.8964
322.7972
341.8456
372.2464
0.199844 0.576899 0.062413
241.1227
265.5065
291.6997
329.5174
347.8854
373.5956
0.199844 0.576899 0.124826
223.7524
270.6262
275.8963
334.0959
360.6876
377.8482
0.199844 0.576899 0.187239
209.4404
247.7959
288.5373
331.8636
373.212
383.31
0.199844 0.576899 0.249653
204.1881
226.4081
301.9844
324.8018
382.1931
386.9163
0.199844 0.576899 -0.312066
209.7997
211.1252
314.3586
314.6376
386.1849
387.3371
0.299765 0.519209 0.0
263.7149
289.9728
294.7744
323.834
338.6943
370.2873
0.299765 0.519209 0.062413
254.0653
282.0915
295.0069
331.5464
346.5285
369.3234
0.299765 0.519209 0.124826
235.069
261.3912
302.48
344.5044
359.7429
367.4304
0.299765 0.519209 0.187239
217.3842
238.8859
313.2011
349.7803
369.2865
370.4937
0.299765 0.519209 0.249653
207.0796
219.4998
324.8674
344.8416
375.0551
376.7689
0.299765 0.519209 -0.312066
207.6099
207.9418
335.7528
335.8778
378.0934
378.2757
P	=	999.95	V	=	113.26368	E	=	-655.44448384
0.0 0.0 0.0
-0.0
-0.0
0.0
262.3
262.3
472.4316
0.0 0.0 0.062442
40.5376
40.5376
89.7587
259.05
259.05
469.1873
0.0 0.0 0.124883
79.4833
79.4833
175.1455
249.1391
249.1391
458.9815
0.0 0.0 0.187325
116.0112
116.0112
232.4319
232.4319
252.2898
440.504
0.0 0.0 0.249766
150.0494
150.0494
209.4442
209.4442
318.2893
411.947
0.0 0.0 -0.312208
181.4801
181.4801
181.4901
181.4901
371.5176
371.6028
0.0 0.115369 0.0
74.2449
80.9027
159.7779
273.8501
295.7878
465.5542
0.0 0.115369 0.062442
91.2124
94.8068
176.3085
271.0717
292.4905
462.6677
0.0 0.115369 0.124883
115.3686
128.6059
221.2085
262.4157
282.6331
453.6512
0.0 0.115369 0.187325
144.1395
159.8536
247.4767
266.3948
278.0081
437.4204
0.0 0.115369 0.249766
173.3258
189.6112
226.6326
244.7105
332.2265
412.4367
0.0 0.115369 -0.312208
201.2586
201.3588
218.1743
218.8596
377.351
377.6971
0.0 0.230737 0.0
143.7378
147.1107
288.5021
298.7401
361.4873
446.1308
0.0 0.230737 0.062442
151.5253
153.8574
296.7088
296.9604
356.7322
445.3726
0.0 0.230737 0.124883
171.0566
172.2694
290.1807
318.9472
343.4425
442.4314
0.0 0.230737 0.187325
193.3096
200.3147
278.366
321.5126
349.7368
435.5269
0.0 0.230737 0.249766
216.9532
231.5193
261.307
295.7611
379.5343
422.9042
0.0 0.230737 -0.312208
240.0684
240.3246
263.567
265.8684
403.7301
405.0702
0.0 0.346106 0.0
189.167
204.0455
321.5269
369.942
414.7264
417.9593
0.0 0.346106 0.062442
194.7708
204.5879
319.7564
375.3214
396.5395
432.596
0.0 0.346106 0.124883
209.3033
209.4403
314.1863
367.6966
395.1525
443.9246
0.0 0.346106 0.187325
222.7766
229.1053
304.1778
339.9297
413.6383
449.8122
0.0 0.346106 0.249766
245.7777
250.3552
289.6156
308.7716
431.1262
449.6753
0.0 0.346106 -0.312208
270.995
271.3032
275.3746
276.784
443.1706
443.8522
0.0 0.461475 0.0
207.7343
250.3947
335.2825
388.2473
408.8874
440.9185
0.0 0.461475 0.062442
212.7277
246.3253
333.3006
378.469
415.793
446.57
0.0 0.461475 0.124883
226.2676
239.4527
327.4126
357.271
430.7366
456.884
0.0 0.461475 0.187325
239.4279
245.2006
317.5767
330.5875
446.7652
465.343
0.0 0.461475 0.249766
251.3747
266.0931
301.3156
303.8045
459.4943
469.3303
0.0 0.461475 -0.312208
272.9327
273.9482
286.1834
286.3969
466.994
467.6902
0.0 -0.576843 0.0
211.9727
270.7978
339.6668
372.7715
419.5974
447.2129
0.0 -0.576843 0.062442
216.7253
264.7728
337.53
365.5119
426.1109
451.7408
0.0 -0.576843 0.124883
229.9363
253.1403
331.2784
347.3685
440.7881
461.1697
0.0 -0.576843 0.187325
247.0762
248.8391
321.1993
323.2116
456.0774
469.7649
0.0 -0.576843 0.249766
253.2142
269.9248
296.4934
307.4303
467.6418
474.4742
0.0 -0.576843 -0.312208
270.1862
272.4486
290.0638
290.128
473.2293
474.5597
0.099912 0.173053 0.0
125.9332
142.4725
246.9514
302.8144
339.0373
452.3759
0.099912 0.173053 0.062442
135.0475
149.1756
256.8175
301.4293
335.0774
450.6336
0.099912 0.173053 0.124883
157.885
166.3535
277.4955
301.7588
323.4179
445.0508
0.099912 0.173053 0.187325
186.9585
188.5543
275.8914
304.8465
327.6267
434.6025
0.099912 0.173053 0.249766
211.7282
216.8161
261.2159
281.0084
362.7041
417.8867
0.099912 0.173053 -0.312208
230.4427
231.2689
256.3824
257.2248
393.7763
393.8776
0.099912 0.288422 0.0
184.506
199.4613
306.6998
356.6572
390.2161
428.3603
0.099912 0.288422 0.062442
184.8159
205.5283
310.2584
358.8867
381.7702
432.4407
0.099912 0.288422 0.124883
190.6431
220.0931
313.7138
357.4287
373.6847
438.2792
0.099912 0.288422 0.187325
206.2135
238.4432
308.3748
334.0726
390.6727
440.2203
0.099912 0.288422 0.249766
229.947
255.9936
294.3932
309.5409
410.6016
436.3642
0.099912 0.288422 -0.312208
254.0821
255.6588
289.7799
291.4458
426.1432
426.8228
0.099912 0.40379 0.0
230.3905
235.8147
337.5965
395.9448
398.4837
427.9697
0.099912 0.40379 0.062442
226.4204
240.7567
337.5322
383.4123
404.5843
435.7347
0.099912 0.40379 0.124883
220.9634
253.0664
332.7706
363.4604
416.8458
447.3637
0.099912 0.40379 0.187325
222.9124
269.3572
317.0787
345.2965
432.2482
455.5071
0.099912 0.40379 0.249766
236.2235
278.9297
300.4211
329.5813
445.9
458.3037
0.099912 0.40379 -0.312208
258.0198
258.5327
312.4535
313.1219
454.9591
455.0837
0.099912 0.519159 0.0
241.2014
271.1235
350.9589
372.6477
413.069
443.8708
0.099912 0.519159 0.062442
242.2832
268.0345
345.4808
369.1812
419.7747
447.8993
0.099912 0.519159 0.124883
239.2744
270.365
329.4682
361.8502
434.5358
456.5823
0.099912 0.519159 0.187325
234.7309
283.8854
306.841
351.5263
449.8447
464.7162
0.099912 0.519159 0.249766
239.8347
279.2418
303.7576
338.0895
461.4364
469.1435
0.099912 0.519159 -0.312208
255.2647
256.6633
321.5297
321.987
467.5532
468.6053
0.199824 0.346106 0.0
230.5818
260.704
331.8555
402.0241
404.815
405.9518
0.199824 0.346106 0.062442
225.545
264.5267
338.103
379.9334
407.0982
422.9007
0.199824 0.346106 0.124883
217.9656
274.483
348.1173
353.6728
412.1596
437.3662
0.199824 0.346106 0.187325
218.2851
285.012
328.2983
350.4527
422.7515
446.0343
0.199824 0.346106 0.249766
230.5446
277.5049
321.2211
343.9425
435.1364
448.3889
0.199824 0.346106 -0.312208
252.191
253.2081
331.9542
332.7435
444.408
444.5503
0.199824 0.461475 0.0
271.6514
293.7737
360.9607
372.4459
406.219
433.387
0.199824 0.461475 0.062442
262.1139
298.6693
355.2927
371.4434
414.7967
435.3792
0.199824 0.461475 0.124883
245.5397
306.1994
335.4614
378.7681
426.7839
442.3399
0.199824 0.461475 0.187325
234.1515
295.551
332.6931
379.379
438.1424
450.7201
0.199824 0.461475 0.249766
234.3978
269.911
346.0594
372.3501
448.1163
455.3282
0.199824 0.461475 -0.312208
247.0732
247.5974
360.3652
360.5533
454.1429
454.5298
0.199824 0.576843 0.0
293.1356
301.7742
354.5366
377.0582
402.2263
441.9177
0.199824 0.576843 0.062442
279.8428
310.67
339.9871
385.8268
409.445
443.2889
0.199824 0.576843 0.124883
260.0563
315.4002
323.2222
392.279
425.0318
447.9034
0.199824 0.576843 0.187325
243.8011
288.8508
338.1764
390.0172
440.4955
454.1209
0.199824 0.576843 0.249766
237.7245
263.7803
354.1177
381.5338
451.7158
458.1123
0.199824 0.576843 -0.312208
244.4514
245.5895
368.9138
369.2716
457.1718
457.9629
0.299737 0.519159 0.0
305.8197
340.4273
343.2753
378.5291
396.8167
439.4741
0.299737 0.519159 0.062442
294.8805
328.4523
346.5135
387.9049
406.4609
438.177
0.299737 0.519159 0.124883
273.3121
304.421
355.5236
403.9845
423.0383
435.4789
0.299737 0.519159 0.187325
253.0441
278.4029
368.2496
411.5108
436.5531
436.5799
0.299737 0.519159 0.249766
240.9962
255.6737
382.2613
406.28
442.6731
444.3795
0.299737 0.519159 -0.312208
241.6168
241.947
395.3673
395.6123
446.1424
446.2402
P	=	1500.12	V	=	105.75575	E	=	-655.38134936
0.0 0.0 0.0
-0.0
0.0
0.0
290.4673
290.4673
533.5169
0.0 0.0 0.062457
44.9943
44.9943
100.14
286.9004
286.9004
529.5043
0.0 0.0 0.124915
88.1394
88.1394
195.5606
275.9828
275.9828
517.1152
0.0 0.0 0.187372
128.5186
128.5186
257.492
257.492
282.0047
495.2774
0.0 0.0 0.249829
166.1364
166.1364
231.9777
231.9777
356.2007
462.3018
0.0 0.0 -0.312287
200.9448
200.9448
200.9512
200.9512
416.3461
416.3479
0.0 0.115368 0.0
81.9951
89.9942
178.4331
303.6657
328.0326
525.4494
0.0 0.115368 0.062457
101.1241
104.4483
197.127
300.4563
324.4154
521.9133
0.0 0.115368 0.124915
127.4863
141.7654
247.4767
290.6363
313.4518
511.0506
0.0 0.115368 0.187372
159.2576
176.6308
273.9389
295.2453
311.0547
491.949
0.0 0.115368 0.249829
191.6971
209.7859
250.8448
270.9286
371.9727
463.1294
0.0 0.115368 -0.312287
222.7892
222.827
241.5206
242.0172
423.1577
423.4053
0.0 0.230736 0.0
158.7709
163.5136
322.4114
332.0901
402.1799
502.5969
0.0 0.230736 0.062457
167.359
170.5262
329.5455
331.9379
396.9399
501.5838
0.0 0.230736 0.124915
188.9044
190.2184
321.6848
356.5454
382.2226
497.9091
0.0 0.230736 0.187372
213.4202
221.4769
308.1379
356.954
391.6366
489.7326
0.0 0.230736 0.249829
239.9184
256.442
289.1429
327.8258
425.1348
475.1349
0.0 0.230736 -0.312287
265.8011
265.8533
292.257
294.184
453.1262
454.1571
0.0 0.346104 0.0
210.0231
225.5119
358.102
413.6883
463.4247
469.3384
0.0 0.346104 0.062457
215.9036
226.4463
355.8994
419.4801
443.838
485.2733
0.0 0.346104 0.124915
231.6711
232.2255
349.1002
410.0996
442.8461
498.3489
0.0 0.346104 0.187372
247.5528
253.3447
337.399
378.7359
463.6133
505.1537
0.0 0.346104 0.249829
273.2589
277.1353
320.8822
343.5188
483.4358
504.9547
0.0 0.346104 -0.312287
300.2867
300.329
306.2881
307.5641
497.3953
497.9704
0.0 0.461471 0.0
230.3926
277.0808
373.7864
434.2394
457.4576
494.8449
0.0 0.461471 0.062457
235.8987
273.0348
371.5273
423.0431
465.5512
501.3692
0.0 0.461471 0.124915
250.8517
266.4019
364.6899
399.0589
482.7221
513.3762
0.0 0.461471 0.187372
267.0543
271.7552
353.2187
369.0563
501.1978
523.1632
0.0 0.461471 0.249829
280.4529
294.9095
336.243
337.2667
516.0189
527.6002
0.0 0.461471 -0.312287
304.4847
305.5656
317.3957
317.4249
524.9013
525.4321
0.0 -0.576839 0.0
234.9874
299.9778
378.7745
415.9853
469.5093
502.9084
0.0 -0.576839 0.062457
240.3883
293.7062
376.4151
408.0546
476.947
508.0711
0.0 -0.576839 0.124915
255.1911
281.6637
369.3602
388.0685
493.865
518.9078
0.0 -0.576839 0.187372
275.6452
276.0461
357.6972
361.2098
511.7006
528.7596
0.0 -0.576839 0.249829
282.8003
299.25
331.3159
341.657
525.3899
533.9603
0.0 -0.576839 -0.312287
301.9223
304.2822
321.7865
321.7986
532.4368
533.4914
0.099911 0.173052 0.0
139.083
158.3261
275.3519
337.1093
376.7129
509.9513
0.099911 0.173052 0.062457
148.9955
165.3673
286.2626
335.5578
372.2503
507.8169
0.099911 0.173052 0.124915
174.107
183.7801
308.0393
337.0287
359.0989
501.089
0.099911 0.173052 0.187372
206.3397
208.2177
305.379
338.1602
366.8749
488.7657
0.099911 0.173052 0.249829
234.1307
239.497
289.2413
311.3697
406.4327
469.3823
0.099911 0.173052 -0.312287
254.8954
255.7203
284.1375
284.6557
441.7634
441.8384
0.099911 0.28842 0.0
203.8063
221.4237
340.7906
399.2483
435.145
481.6078
0.099911 0.28842 0.062457
204.3056
227.7638
344.516
401.5815
426.0124
485.9761
0.099911 0.28842 0.124915
210.9103
243.3675
347.9136
398.054
418.8115
492.3622
0.099911 0.28842 0.187372
228.2504
263.6201
341.8324
371.5487
437.8987
494.4471
0.099911 0.28842 0.249829
254.5753
283.284
326.688
343.6636
460.3387
489.9641
0.099911 0.28842 -0.312287
281.3566
282.7555
322.056
323.2787
478.2272
478.7665
0.099911 0.403787 0.0
255.5709
260.6715
375.5478
443.1225
446.2815
479.5443
0.099911 0.403787 0.062457
250.6588
266.8741
375.4515
428.3356
453.6031
488.501
0.099911 0.403787 0.124915
245.0411
280.5973
369.9988
405.5058
467.4029
501.9796
0.099911 0.403787 0.187372
247.6644
298.6378
352.479
384.7547
484.8343
511.4453
0.099911 0.403787 0.249829
262.4779
309.2094
334.3045
366.7327
500.4498
514.6937
0.099911 0.403787 -0.312287
286.5408
286.946
347.628
348.0831
510.8744
510.9541
0.099911 0.519155 0.0
267.4553
300.117
390.9449
415.7937
462.0139
498.8797
0.099911 0.519155 0.062457
268.5043
297.2368
384.7184
412.0775
469.7329
503.3942
0.099911 0.519155 0.124915
265.2519
300.6479
366.627
404.0888
486.7166
513.2515
0.099911 0.519155 0.187372
260.8736
315.7422
341.3823
392.4159
504.5126
522.5333
0.099911 0.519155 0.249829
266.8996
310.6078
338.0628
376.9357
518.2164
527.4766
0.099911 0.519155 -0.312287
284.1398
285.5976
358.0711
358.467
525.6894
526.517
0.199823 0.346104 0.0
254.7187
289.3053
368.3071
450.4214
451.8462
456.0059
0.199823 0.346104 0.062457
249.3386
293.3393
375.2401
424.1775
457.2393
473.5047
0.199823 0.346104 0.124915
241.403
303.9641
386.5135
394.1559
462.7623
490.2043
0.199823 0.346104 0.187372
242.2215
315.2659
365.6112
389.4505
474.4791
500.3227
0.199823 0.346104 0.249829
255.9679
307.2158
357.4753
382.4625
488.3981
503.2494
0.199823 0.346104 -0.312287
279.8577
280.6945
369.3647
369.9416
498.9052
499.003
0.199823 0.461471 0.0
300.3428
326.1919
401.0045
415.4829
453.9407
486.9963
0.199823 0.461471 0.062457
289.8253
331.6059
395.2834
413.4527
464.104
488.9849
0.199823 0.461471 0.124915
271.8411
339.5891
373.219
421.8613
478.3426
496.237
0.199823 0.461471 0.187372
259.9453
327.3149
370.5322
423.0736
491.4348
505.617
0.199823 0.461471 0.249829
260.7511
299.418
385.5588
415.3256
502.968
511.0598
0.199823 0.461471 -0.312287
274.7096
275.2732
401.7989
401.9333
509.9558
510.2559
0.199823 0.576839 0.0
324.4651
335.1685
394.4623
419.5164
449.1078
496.7575
0.199823 0.576839 0.062457
309.5128
345.3687
377.5867
429.9843
457.2833
498.1581
0.199823 0.576839 0.124915
287.5899
349.671
359.7687
437.9665
475.1427
503.0025
0.199823 0.576839 0.187372
270.2416
320.2041
376.7567
435.8461
493.2015
509.8383
0.199823 0.576839 0.249829
264.3749
292.974
394.8788
426.2722
506.5959
514.3946
0.199823 0.576839 -0.312287
272.098
273.304
411.872
412.1349
513.373
513.997
0.299734 0.519155 0.0
338.55
379.2548
381.3577
420.6566
442.0871
493.8948
0.299734 0.519155 0.062457
326.0958
364.1419
386.2522
431.4763
453.1822
492.364
0.299734 0.519155 0.124915
302.0007
336.6776
396.4885
450.2444
472.3081
489.0231
0.299734 0.519155 0.187372
280.1897
307.9591
410.9212
459.9852
488.2279
489.4371
0.299734 0.519155 0.249829
267.928
283.7446
426.9724
454.6372
496.1256
497.7576
0.299734 0.519155 -0.312287
268.9638
269.3358
442.1814
442.3135
500.1526
500.204
P	=	1999.78	V	=	100.1092	E	=	-655.3145593
0.0 0.0 0.0
-0.0
-0.0
0.0
313.7964
313.7964
585.8655
0.0 0.0 0.062462
48.4872
48.4872
108.6557
309.9411
309.9411
581.1285
0.0 0.0 0.124924
95.0035
95.0035
212.4018
298.1342
298.1342
566.7045
0.0 0.0 0.187386
138.5812
138.5812
278.1232
278.1232
306.6948
541.7992
0.0 0.0 0.249847
179.234
179.234
250.4977
250.4977
387.9198
504.8783
0.0 0.0 -0.312309
216.8961
216.8961
216.9053
216.9053
453.9778
454.0909
0.0 0.115367 0.0
88.4958
96.8485
194.2826
328.1145
354.7635
576.7054
0.0 0.115367 0.062462
108.9141
112.4666
214.6385
324.6387
350.7935
572.5529
0.0 0.115367 0.124924
137.4066
152.6288
269.389
313.9871
338.8253
559.9295
0.0 0.115367 0.187386
171.7501
190.3359
295.8856
318.964
338.7024
538.1552
0.0 0.115367 0.249847
206.8372
226.2312
270.8614
292.5309
405.37
505.8804
0.0 0.115367 -0.312309
240.4693
240.5147
260.6308
261.1559
461.6288
461.9364
0.0 0.230734 0.0
171.2556
176.3187
351.2836
359.1398
436.0731
550.7505
0.0 0.230734 0.062462
180.4372
183.9128
356.3312
361.5657
430.3091
549.5216
0.0 0.230734 0.124924
203.7623
205.1977
347.7157
388.0467
414.3519
545.0783
0.0 0.230734 0.187386
230.2779
239.154
332.9677
386.1678
426.7953
535.5718
0.0 0.230734 0.249847
258.9756
277.1121
312.372
354.3323
463.5427
519.0506
0.0 0.230734 -0.312309
286.9965
287.1586
315.9763
317.6733
494.5177
495.6369
0.0 0.346102 0.0
227.1499
243.2196
387.9261
450.9452
504.4108
512.954
0.0 0.346102 0.062462
233.4217
244.4409
385.4603
456.8053
483.8195
529.899
0.0 0.346102 0.124924
250.3366
251.1776
377.9242
445.6013
483.1543
544.4468
0.0 0.346102 0.187386
268.169
273.7292
365.0889
411.1305
505.7144
551.9496
0.0 0.346102 0.249847
296.2435
299.525
347.0992
372.4365
527.5591
551.5765
0.0 0.346102 -0.312309
324.6559
324.7962
332.2306
333.0717
543.0754
543.7056
0.0 0.461469 0.0
249.969
299.1354
405.6457
473.0445
498.8018
540.7193
0.0 0.461469 0.062462
255.7437
295.2654
403.1261
460.6695
507.718
547.9455
0.0 0.461469 0.124924
271.6327
288.9065
395.5274
434.3667
526.5933
561.353
0.0 0.461469 0.187386
290.1266
294.0965
382.8711
401.5196
547.1269
572.2353
0.0 0.461469 0.249847
304.8039
319.2032
365.3818
365.6042
563.8306
576.999
0.0 0.461469 -0.312309
331.0036
332.0415
343.6673
343.7592
573.9693
574.3523
0.0 -0.576836 0.0
255.3313
324.1999
411.3811
452.2743
512.0061
550.4814
0.0 -0.576836 0.062462
261.0045
317.8537
408.7511
443.8331
520.1091
556.1313
0.0 -0.576836 0.124924
276.6738
305.666
400.9199
422.3623
538.7531
568.0934
0.0 -0.576836 0.187386
299.0048
299.7445
388.0487
393.237
558.7029
578.9796
0.0 -0.576836 0.249847
307.7149
324.1163
360.6277
370.4316
574.2781
584.5628
0.0 -0.576836 -0.312309
328.8595
330.8092
348.5741
348.8031
582.6985
583.5275
0.099911 0.173051 0.0
150.0303
170.6761
299.3005
365.3265
407.9802
559.1052
0.099911 0.173051 0.062462
160.6513
178.2664
310.9582
363.8041
403.0726
556.5706
0.099911 0.173051 0.124924
187.6776
198.1461
333.3507
366.649
388.6258
548.7043
0.099911 0.173051 0.187386
222.4835
224.591
329.8799
365.6849
399.8351
534.603
0.099911 0.173051 0.249847
252.6535
258.3247
312.4679
336.4545
443.1749
512.816
0.099911 0.173051 -0.312309
275.0788
275.8991
306.9353
307.5087
482.1179
482.2242
0.099911 0.288418 0.0
219.7386
239.1718
368.9073
435.1369
472.7087
526.9041
0.099911 0.288418 0.062462
220.3582
245.9856
372.7445
437.5338
463.0534
531.5171
0.099911 0.288418 0.124924
227.6953
262.8127
376.2141
431.91
456.9128
538.3078
0.099911 0.288418 0.187386
246.6012
284.7166
369.6937
402.7289
477.7053
540.3755
0.099911 0.288418 0.249847
275.1243
305.9643
353.5482
372.1105
502.2614
535.1872
0.099911 0.288418 -0.312309
304.0328
305.2888
348.769
349.8827
522.062
522.6271
0.099911 0.403785 0.0
276.7813
281.1579
406.902
483.1204
486.7539
523.2082
0.099911 0.403785 0.062462
270.8693
288.7112
406.767
466.3322
495.2266
533.1458
0.099911 0.403785 0.124924
265.0742
303.7176
400.9073
441.049
510.2159
548.2698
0.099911 0.403785 0.187386
268.227
323.2038
382.2198
417.8957
529.2767
558.8729
0.099911 0.403785 0.249847
284.366
334.5872
362.7812
397.8539
546.5537
562.426
0.099911 0.403785 -0.312309
310.3422
310.8278
377.0401
377.4267
558.1701
558.1966
0.099911 0.519152 0.0
290.2608
324.1471
424.2491
452.1045
503.6482
545.7439
0.099911 0.519152 0.062462
291.0284
321.7553
417.4094
448.2193
512.0858
550.6591
0.099911 0.519152 0.124924
287.3024
326.2352
397.8077
439.6215
530.8075
561.5177
0.099911 0.519152 0.187386
282.946
342.5497
370.6123
426.7251
550.6883
571.7587
0.099911 0.519152 0.249847
289.6391
337.095
367.0002
409.5749
566.2475
577.0505
0.099911 0.519152 -0.312309
308.5874
309.7953
388.9123
389.1582
574.9675
575.6273
0.199822 0.346102 0.0
274.5825
313.0791
398.7724
491.178
491.4729
498.438
0.199822 0.346102 0.062462
268.9815
317.383
406.2027
461.4988
499.7926
516.2797
0.199822 0.346102 0.124924
260.7907
328.7208
418.4031
428.5334
505.7693
535.0316
0.199822 0.346102 0.187386
261.9592
340.724
397.3968
421.7995
518.3718
546.4173
0.199822 0.346102 0.249847
276.9632
332.2672
388.0102
414.4541
533.4556
549.7271
0.199822 0.346102 -0.312309
302.9555
303.6603
400.5045
401.0266
544.9666
545.0471
0.199822 0.461469 0.0
324.0617
353.7619
434.6718
451.8296
494.1764
532.4798
0.199822 0.461469 0.062462
313.0303
359.5124
429.041
448.966
505.7283
534.4923
0.199822 0.461469 0.124924
294.0851
367.8398
405.6805
457.967
522.0264
542.0976
0.199822 0.461469 0.187386
281.6111
354.663
402.7031
459.556
536.6234
552.34
0.199822 0.461469 0.249847
282.6568
324.6811
418.8389
451.2287
549.3841
558.3481
0.199822 0.461469 -0.312309
297.9227
298.4554
436.5221
436.6174
557.1661
557.4123
0.199822 0.576836 0.0
350.5181
363.8576
428.0317
455.0703
488.9829
543.2864
0.199822 0.576836 0.062462
334.634
374.9489
409.4681
467.0233
497.8948
544.7526
0.199822 0.576836 0.124924
311.2948
379.2011
390.8193
476.3647
517.5976
549.9212
0.199822 0.576836 0.187386
292.9577
347.3857
409.3797
474.3463
537.7824
557.3283
0.199822 0.576836 0.249847
286.8556
317.9393
429.2201
463.8442
552.9465
562.1981
0.199822 0.576836 -0.312309
295.4455
296.4723
447.9889
448.1634
560.8748
561.4064
0.299733 0.519152 0.0
365.8164
412.3594
413.372
456.3982
480.3275
539.8771
0.299733 0.519152 0.062462
352.5345
394.5804
420.1446
468.3431
492.6666
538.1705
0.299733 0.519152 0.124924
326.8801
364.8821
431.37
489.2873
514.1364
534.377
0.299733 0.519152 0.187386
303.7023
333.9979
447.1011
500.6821
532.115
534.3493
0.299733 0.519152 0.249847
290.694
307.9103
464.7161
495.2456
541.309
542.8997
0.299733 0.519152 -0.312309
291.9387
292.2951
481.5365
481.6481
545.6581
545.7143
P	=	2500.33	V	=	95.5981	E	=	-655.24580966
0.0 0.0 0.0
-0.0
-0.0
-0.0
334.2836
334.2836
631.8728
0.0 0.0 0.062462
51.606
51.606
116.3949
330.1796
330.1796
626.4993
0.0 0.0 0.124924
101.2841
101.2841
227.6149
317.657
317.657
610.2907
0.0 0.0 0.187387
147.9977
147.9977
296.5144
296.5144
328.8216
582.7094
0.0 0.0 0.249849
191.5699
191.5699
267.3458
267.3458
416.1275
542.3806
0.0 0.0 -0.312311
231.7415
231.7415
231.7415
231.7415
487.3507
487.3507
0.0 0.11537 0.0
94.373
102.8371
208.2031
349.5679
378.1675
621.7329
0.0 0.11537 0.062462
115.6811
119.5822
230.1627
345.8633
373.9131
617.0262
0.0 0.11537 0.124924
146.1429
162.1367
288.9807
334.528
361.1197
602.8561
0.0 0.11537 0.187387
182.9789
202.6487
315.3274
339.8741
363.2501
578.779
0.0 0.11537 0.249849
220.6083
241.2769
288.8053
311.6121
434.7833
543.5889
0.0 0.11537 -0.312311
256.5418
256.5418
278.0334
278.0334
495.7473
495.7473
0.0 0.230739 0.0
182.5066
187.5095
376.6189
382.8286
465.6245
592.9777
0.0 0.230739 0.062462
192.1496
195.5528
379.8186
387.645
459.4606
591.5004
0.0 0.230739 0.124924
216.7058
218.2836
370.564
415.8341
442.5635
586.3744
0.0 0.230739 0.187387
245.0635
254.7234
354.7638
411.6421
457.6479
575.857
0.0 0.230739 0.249849
275.7918
295.722
332.7474
377.0498
496.8178
557.9544
0.0 0.230739 -0.312311
305.783
305.783
337.4194
337.4194
531.4198
531.4198
0.0 0.346109 0.0
242.1778
259.0765
413.9469
483.5106
540.1125
551.062
0.0 0.346109 0.062462
248.7901
260.5309
411.2762
489.4951
518.6858
568.9123
0.0 0.346109 0.124924
266.69
268.0008
403.1201
476.579
518.6014
584.8371
0.0 0.346109 0.187387
286.3132
291.5517
389.2714
439.3511
542.601
593.0833
0.0 0.346109 0.249849
316.3729
319.0724
369.9237
397.4784
565.9307
592.6478
0.0 0.346109 -0.312311
345.9795
345.9795
355.0125
355.0125
583.3444
583.3444
0.0 0.461478 0.0
267.2631
318.7455
433.3064
506.7909
534.7677
580.7045
0.0 0.461478 0.062462
273.3018
315.0357
430.5732
493.374
544.6136
588.6491
0.0 0.461478 0.124924
289.9555
309.1048
422.3662
465.0992
565.1234
603.5365
0.0 0.461478 0.187387
310.6526
313.6677
408.7212
429.9188
587.4128
615.4593
0.0 0.461478 0.249849
325.9022
340.3757
389.8911
391.4498
605.6983
620.3582
0.0 0.461478 -0.312311
354.6042
354.6042
366.6094
366.6094
617.056
617.056
0.0 -0.576848 0.0
273.367
345.6793
439.6229
483.7426
548.9131
591.944
0.0 -0.576848 0.062462
279.2434
339.3818
436.7939
474.9861
557.7375
598.1522
0.0 -0.576848 0.124924
295.5796
327.2489
428.3665
452.4657
578.1269
611.33
0.0 -0.576848 0.187387
319.0961
321.3285
414.5059
421.4345
600.0116
623.2061
0.0 -0.576848 0.249849
329.6662
345.8052
386.2979
395.528
617.1716
629.0303
0.0 -0.576848 -0.312311
353.1564
353.1564
372.135
372.135
627.0827
627.0827
0.099913 0.173054 0.0
159.9063
181.3803
320.3489
390.0457
435.301
602.2369
0.099913 0.173054 0.062462
171.0837
189.4831
332.6717
388.5868
429.9994
599.3623
0.099913 0.173054 0.124924
199.6821
210.7209
355.5932
392.7382
414.4185
590.5159
0.099913 0.173054 0.187387
236.6897
239.0067
351.4465
389.7468
428.8705
574.8607
0.099913 0.173054 0.249849
269.0524
274.8622
332.9248
358.4134
475.5018
550.9628
0.099913 0.173054 -0.312311
293.3449
293.3449
327.2259
327.2259
517.6436
517.6436
0.099913 0.288424 0.0
234.0334
254.554
393.4943
466.5756
505.4869
566.5348
0.099913 0.288424 0.062462
234.7531
261.766
397.4742
469.0061
495.4379
571.3527
0.099913 0.288424 0.124924
242.62
279.6582
401.0103
461.4896
490.3853
578.5243
0.099913 0.288424 0.187387
262.7082
303.1357
394.0455
429.8936
512.5799
580.6699
0.099913 0.288424 0.249849
292.9786
325.9641
377.1627
396.5162
538.7663
574.9837
0.099913 0.288424 -0.312311
324.3517
324.3517
372.5204
372.5204
560.7048
560.7048
0.099913 0.403793 0.0
295.3021
299.3889
434.1689
518.0152
522.0041
561.3338
0.099913 0.403793 0.062462
288.7908
307.87
433.9986
499.3802
531.6813
572.159
0.099913 0.403793 0.124924
282.9499
323.9373
427.7562
472.0175
547.7755
588.8466
0.099913 0.403793 0.187387
286.3968
344.6512
408.1189
446.8083
568.1945
600.5097
0.099913 0.403793 0.249849
303.3373
356.7301
387.8136
424.8553
586.8516
604.2831
0.099913 0.403793 -0.312311
331.3684
331.3684
402.798
402.798
599.5344
599.5344
0.099913 0.519163 0.0
310.3183
345.3999
453.1176
483.5969
539.8677
586.6393
0.099913 0.519163 0.062462
310.8525
343.4495
445.7484
479.6051
549.0594
591.9748
0.099913 0.519163 0.124924
306.8534
348.863
424.8776
470.5238
569.4333
603.8792
0.099913 0.519163 0.187387
302.5255
366.0838
396.1353
456.6254
591.1607
615.0319
0.099913 0.519163 0.249849
309.5211
360.3196
392.3542
438.0362
608.3607
620.5376
0.099913 0.519163 -0.312311
330.4956
330.4956
415.8664
415.8664
618.416
618.416
0.199826 0.346109 0.0
292.2508
333.5784
425.3893
525.4698
527.2414
535.6345
0.199826 0.346109 0.062462
286.4534
338.1536
433.2541
494.0163
537.0887
553.5958
0.199826 0.346109 0.124924
278.0158
350.1503
446.2546
458.5448
543.4402
574.1542
0.199826 0.346109 0.187387
279.429
362.7082
425.2469
449.9986
556.7986
586.6795
0.199826 0.346109 0.249849
295.4408
353.966
414.6998
442.2648
572.8911
590.3605
0.199826 0.346109 -0.312311
323.438
323.438
427.8063
427.8063
585.2972
585.2972
0.199826 0.461478 0.0
344.9476
377.7093
463.9717
483.3609
529.246
572.2937
0.199826 0.461478 0.062462
333.4738
383.7475
458.3328
479.8426
541.988
574.302
0.199826 0.461478 0.124924
313.7802
392.3032
433.9229
489.2847
560.1073
582.1751
0.199826 0.461478 0.187387
300.8246
378.3592
430.8226
491.2168
576.0708
593.187
0.199826 0.461478 0.249849
301.9878
346.8945
447.8982
482.4314
590.0432
599.7107
0.199826 0.461478 -0.312311
318.7043
318.7043
466.7962
466.7962
598.6361
598.6361
0.199826 0.576848 0.0
373.3551
388.9128
457.0935
485.9267
523.751
583.9654
0.199826 0.576848 0.062462
356.6705
400.7456
437.1106
499.1096
533.2807
585.4543
0.199826 0.576848 0.124924
332.1396
404.8579
417.8467
509.6026
554.5854
590.8641
0.199826 0.576848 0.187387
313.0386
371.1346
437.7984
507.716
576.7083
598.8159
0.199826 0.576848 0.249849
306.8624
339.9693
459.1894
496.5165
593.5428
604.0663
0.199826 0.576848 -0.312311
316.6593
316.6593
479.5431
479.5431
602.7609
602.7609
0.299739 0.519163 0.0
389.5787
441.104
441.1324
487.5975
513.6468
580.112
0.299739 0.519163 0.062462
375.6081
420.9503
449.5915
500.3967
526.9487
578.1567
0.299739 0.519163 0.124924
348.6325
389.3243
461.6485
523.1097
550.3781
573.8031
0.299739 0.519163 0.187387
324.4236
356.728
478.5588
535.9412
570.2772
573.4288
0.299739 0.519163 0.249849
311.0474
329.353
497.6265
530.527
580.8491
582.3956
0.299739 0.519163 -0.312311
312.7522
312.7522
515.8946
515.8946
585.6241
585.6241
P	=	3000.45	V	=	91.86468	E	=	-655.17617987
0.0 0.0 0.0
-0.0
0.0
0.0
352.0554
352.0554
672.3807
0.0 0.0 0.062459
54.283
54.283
123.0262
347.7646
347.7646
666.3713
0.0 0.0 0.124919
106.4807
106.4807
240.7127
334.6185
334.6185
648.424
0.0 0.0 0.187378
155.5324
155.5324
312.309
312.309
347.9679
618.3482
0.0 0.0 0.249837
201.357
201.357
281.4331
281.4331
440.6123
574.9802
0.0 0.0 -0.312297
243.7504
243.7504
243.7504
243.7504
516.2977
516.2977
0.0 0.115368 0.0
99.246
108.0888
220.4295
368.2484
398.5272
661.3316
0.0 0.115368 0.062459
121.6193
125.6872
243.7231
364.3588
394.0414
656.0865
0.0 0.115368 0.124919
153.6622
170.4242
305.9713
352.4203
380.5206
640.4263
0.0 0.115368 0.187378
192.3716
213.0411
332.1207
357.9777
384.6009
614.1671
0.0 0.115368 0.249837
231.959
253.683
304.0257
328.0054
460.4219
576.2746
0.0 0.115368 -0.312297
269.8781
269.8781
292.457
292.457
525.2029
525.2029
0.0 0.230737 0.0
191.7927
197.2474
398.8325
403.5702
491.4919
629.9848
0.0 0.230737 0.062459
202.0264
205.7164
400.3789
410.4678
484.9514
628.3128
0.0 0.230737 0.124919
227.9756
229.6336
390.5575
440.0099
467.2178
622.5712
0.0 0.230737 0.187378
257.8088
267.9745
373.7764
433.8588
484.7054
610.9658
0.0 0.230737 0.249837
290.1728
311.1057
350.4059
397.1078
526.1868
591.5052
0.0 0.230737 -0.312297
321.844
321.844
355.1118
355.1118
563.0173
563.0173
0.0 0.346105 0.0
255.1268
272.1034
436.758
512.0859
571.5006
584.2792
0.0 0.346105 0.062459
262.0593
273.8652
433.9078
518.0885
549.1613
603.1376
0.0 0.346105 0.124919
280.843
282.1296
425.206
503.519
549.592
620.2571
0.0 0.346105 0.187378
301.6049
306.98
410.4441
463.8812
574.9066
629.014
0.0 0.346105 0.249837
333.3114
335.9911
389.8576
419.2994
599.6434
628.3545
0.0 0.346105 -0.312297
364.4493
364.4493
374.1845
374.1845
618.2474
618.2474
0.0 0.461473 0.0
282.0407
334.813
457.4984
536.0494
566.5094
615.8156
0.0 0.461473 0.062459
288.3317
331.2484
454.5848
521.7405
577.0227
624.36
0.0 0.461473 0.124919
305.7239
325.6767
445.8347
491.709
598.8439
640.403
0.0 0.461473 0.187378
327.7914
330.591
431.2888
454.3811
622.6061
653.1726
0.0 0.461473 0.249837
344.0533
358.7343
411.237
413.5398
642.1991
658.2588
0.0 0.461473 -0.312297
374.4495
374.4495
386.5032
386.5032
654.5048
654.5048
0.0 -0.576842 0.0
288.7259
363.2534
464.2846
510.9868
581.606
628.2898
0.0 -0.576842 0.062459
294.8283
357.0031
461.2743
501.8241
590.9375
634.9471
0.0 -0.576842 0.124919
311.8467
344.9954
452.3015
478.1803
612.6202
649.0894
0.0 -0.576842 0.187378
336.4728
339.361
437.5366
445.4688
636.051
661.7557
0.0 -0.576842 0.249837
348.4033
364.6025
408.3217
417.3302
654.5661
667.7909
0.0 -0.576842 -0.312297
373.2631
373.2631
392.4742
392.4742
665.4247
665.4247
0.099912 0.173052 0.0
168.076
190.785
338.6843
411.7924
459.1317
640.0809
0.099912 0.173052 0.062459
179.8579
199.3187
351.5715
410.4087
453.4981
636.8831
0.099912 0.173052 0.124919
209.959
221.663
374.92
415.6993
436.93
627.0985
0.099912 0.173052 0.187378
248.8571
251.3976
370.177
410.6867
454.2485
609.961
0.099912 0.173052 0.249837
282.9974
288.988
350.5702
377.4023
503.6226
584.1086
0.099912 0.173052 -0.312297
308.5264
308.5264
344.441
344.441
548.4296
548.4296
0.099912 0.288421 0.0
245.831
267.9671
414.972
494.1665
534.2657
601.155
0.099912 0.288421 0.062459
246.7391
275.5449
419.0659
496.5617
523.8448
606.2395
0.099912 0.288421 0.124919
255.2173
294.3651
422.6671
487.2701
519.7216
613.7953
0.099912 0.288421 0.187378
276.3906
319.0408
415.2929
453.5826
543.1552
615.8857
0.099912 0.288421 0.249837
308.2097
342.9895
397.5151
418.0546
570.8166
609.5546
0.099912 0.288421 -0.312297
341.2248
341.2248
392.6297
392.6297
594.1575
594.1575
0.099912 0.403789 0.0
311.303
314.4239
458.0529
548.6707
552.6262
594.8403
0.099912 0.403789 0.062459
303.7784
324.2452
457.8487
528.1869
563.5709
606.4324
0.099912 0.403789 0.124919
297.8311
341.3513
451.2741
498.9493
580.643
624.426
0.099912 0.403789 0.187378
301.6839
363.1258
430.6948
471.96
602.2304
636.94
0.099912 0.403789 0.249837
319.595
375.7422
409.3846
448.4428
622.0451
640.8573
0.099912 0.403789 -0.312297
349.1648
349.1648
425.0029
425.0029
635.6346
635.6346
0.099912 0.519157 0.0
327.5518
362.9291
478.3548
510.8543
571.883
622.48
0.099912 0.519157 0.062459
327.7667
361.5018
470.453
506.835
581.6263
628.1682
0.099912 0.519157 0.124919
323.2566
368.051
448.3759
497.4014
603.2998
640.9007
0.099912 0.519157 0.187378
318.9996
386.2936
418.166
482.6256
626.5259
652.7868
0.099912 0.519157 0.249837
326.5824
380.2064
414.2479
462.7728
645.0317
658.5058
0.099912 0.519157 -0.312297
348.7646
348.7646
439.1524
439.1524
655.9943
655.9943
0.199824 0.346105 0.0
306.908
351.474
448.6397
555.6133
558.3431
568.2472
0.199824 0.346105 0.062459
301.0148
356.2467
456.8741
522.3385
569.7753
586.3664
0.199824 0.346105 0.124919
292.4822
368.7513
470.5507
484.6399
576.4255
608.5861
0.199824 0.346105 0.187378
294.1525
381.771
449.4022
474.574
590.3914
622.0531
0.199824 0.346105 0.249837
311.0487
372.6579
437.8689
466.4979
607.2933
625.9137
0.199824 0.346105 -0.312297
340.5769
340.5769
451.349
451.349
620.4423
620.4423
0.199824 0.461473 0.0
362.4042
398.5534
489.6035
510.6394
560.1143
607.1501
0.199824 0.461473 0.062459
350.5918
404.8039
483.7616
506.8359
573.8602
609.1874
0.199824 0.461473 0.124919
330.2851
413.5027
458.474
516.72
593.5123
617.3482
0.199824 0.461473 0.187378
316.9984
398.8371
455.2338
518.8809
610.5663
628.9913
0.199824 0.461473 0.249837
318.415
365.8545
473.106
509.6379
625.4109
635.8695
0.199824 0.461473 -0.312297
336.1224
336.1224
493.0813
493.0813
634.6172
634.6172
0.199824 0.576842 0.0
392.5109
410.6867
482.18
512.9152
554.4097
619.5436
0.199824 0.576842 0.062459
375.2528
423.1133
460.9455
527.2197
564.4609
621.0698
0.199824 0.576842 0.124919
349.7645
426.9449
441.3305
538.7497
587.0938
626.7147
0.199824 0.576842 0.187378
330.0519
391.5298
462.4849
536.9102
610.7593
635.083
0.199824 0.576842 0.249837
323.8024
358.7802
485.2037
524.9955
628.8789
640.5276
0.199824 0.576842 -0.312297
334.2211
334.2211
506.8865
506.8865
638.9224
638.9224
0.299736 0.519157 0.0
409.7399
464.9513
466.3609
514.854
542.8977
615.2735
0.299736 0.519157 0.062459
395.2125
443.6668
475.3849
528.4654
557.1073
613.1256
0.299736 0.519157 0.124919
367.1757
410.3913
488.1718
552.7728
582.3091
608.3216
0.299736 0.519157 0.187378
342.0672
376.2757
506.0399
566.7691
603.7458
607.5944
0.299736 0.519157 0.249837
328.2459
347.6069
526.3017
561.3021
615.1972
616.7583
0.299736 0.519157 -0.312297
330.1518
330.1518
545.7694
545.7694
620.2171
620.2171
P	=	3200.34	V	=	90.53548	E	=	-655.14817186
0.0 0.0 0.0
0.0
0.0
0.0
358.5621
358.5621
687.6276
0.0 0.0 0.062459
55.2479
55.2479
125.5056
354.1885
354.1885
681.3849
0.0 0.0 0.124918
108.375
108.375
245.5876
340.7874
340.7874
662.7855
0.0 0.0 0.187377
158.3081
158.3081
318.0435
318.0435
355.0658
631.7425
0.0 0.0 0.249836
204.9721
204.9721
286.5678
286.5678
449.6838
587.172
0.0 0.0 -0.312295
248.1619
248.1619
248.1619
248.1619
527.0606
527.0606
0.0 0.115367 0.0
101.0628
110.0685
224.9737
375.0888
405.9768
676.2328
0.0 0.115367 0.062459
123.8307
127.948
248.781
371.1163
401.4005
670.7882
0.0 0.115367 0.124918
156.4362
173.4883
312.323
358.9301
387.6025
654.5686
0.0 0.115367 0.187377
195.8457
216.8844
338.2255
364.5805
392.5758
627.4752
0.0 0.115367 0.249836
236.165
258.2555
309.588
333.9922
469.9984
588.538
0.0 0.115367 -0.312295
274.794
274.794
297.7457
297.7457
536.2241
536.2241
0.0 0.230734 0.0
195.2788
200.8965
407.0647
411.1739
500.9637
643.8999
0.0 0.230734 0.062459
205.7159
209.5024
407.8976
418.9477
494.2942
642.1491
0.0 0.230734 0.124918
232.142
233.8654
397.8366
449.0038
476.2945
636.1698
0.0 0.230734 0.187377
262.5205
272.9257
380.6937
442.015
494.8293
624.159
0.0 0.230734 0.249836
295.4974
316.8341
356.8664
404.4845
537.2001
604.1176
0.0 0.230734 -0.312295
327.7673
327.7673
361.6525
361.6525
574.8877
574.8877
0.0 0.346101 0.0
259.9449
277.0269
445.1353
522.6283
583.0226
596.7529
0.0 0.346101 0.062459
266.9793
278.8884
442.1935
528.6427
560.4476
615.8971
0.0 0.346101 0.124918
286.0632
287.4333
433.2418
513.4686
561.1016
633.4628
0.0 0.346101 0.187377
307.3454
312.6621
418.124
472.9493
586.9311
642.4242
0.0 0.346101 0.249836
339.6608
342.2171
397.1116
427.3911
612.2141
641.6903
0.0 0.346101 -0.312295
371.2154
371.2154
381.3337
381.3337
631.2788
631.2788
0.0 0.461468 0.0
287.507
340.9075
466.3953
547.0213
578.1905
628.7133
0.0 0.461468 0.062459
293.8831
337.3879
463.3801
532.3313
588.9692
637.5168
0.0 0.461468 0.124918
311.5322
331.9237
454.3556
501.5938
611.2951
654.0391
0.0 0.461468 0.187377
334.2085
336.8078
439.4285
463.4352
635.6309
667.1589
0.0 0.461468 0.249836
350.802
365.4475
418.9387
421.7029
655.738
672.3347
0.0 0.461468 -0.312295
381.7931
381.7931
393.7259
393.7259
668.4138
668.4138
0.0 -0.576834 0.0
294.3936
369.9266
473.3588
521.1942
593.632
641.6365
0.0 -0.576834 0.062459
300.5762
363.6881
470.2416
511.8538
603.1536
648.4816
0.0 -0.576834 0.124918
317.8373
351.697
460.9811
487.738
625.3281
663.022
0.0 -0.576834 0.187377
342.8515
346.1039
445.8188
454.3486
649.3598
676.0189
0.0 -0.576834 0.249836
355.3313
371.4581
416.4202
425.1631
668.4099
682.1574
0.0 -0.576834 -0.312295
380.6517
380.6517
399.8276
399.8276
679.6396
679.6396
0.099911 0.17305 0.0
171.1372
194.2842
345.4887
419.7787
467.8531
654.3144
0.099911 0.17305 0.062459
183.1291
202.9614
358.5882
418.4248
462.1025
650.9927
0.099911 0.17305 0.124918
213.7846
225.6969
382.0225
424.2175
445.18
640.8529
0.099911 0.17305 0.187377
253.3906
255.9761
377.0061
418.3634
463.7459
623.1607
0.099911 0.17305 0.249836
288.1649
294.2271
357.0358
384.37
514.1729
596.5752
0.099911 0.17305 -0.312295
314.1371
314.1371
350.7777
350.7777
560.0003
560.0003
0.099911 0.288417 0.0
250.2818
272.926
422.8873
504.3406
544.8261
614.1619
0.099911 0.288417 0.062459
251.2408
280.6287
427.0066
506.7275
534.3101
619.3207
0.099911 0.288417 0.124918
259.9299
299.7787
430.5898
496.7764
530.6133
627.0007
0.099911 0.288417 0.187377
281.5118
324.9068
423.0598
462.3241
554.5531
629.0745
0.099911 0.288417 0.249836
313.8976
349.2821
405.0113
426.0088
582.7934
622.5075
0.099911 0.288417 -0.312295
347.4806
347.4806
400.0748
400.0748
606.682
606.682
0.099911 0.403784 0.0
317.2067
320.1214
466.8336
559.9594
564.1164
607.1582
0.099911 0.403784 0.062459
309.3911
330.3319
466.5992
538.897
575.3755
619.0935
0.099911 0.403784 0.124918
303.4012
347.7835
459.8813
508.9239
592.8114
637.6236
0.099911 0.403784 0.187377
307.3834
369.9365
438.9936
481.2087
614.8565
650.4848
0.099911 0.403784 0.249836
325.6311
382.735
417.3644
457.0973
635.1254
654.4705
0.099911 0.403784 -0.312295
355.7422
355.7422
433.1829
433.1829
649.069
649.069
0.099911 0.519151 0.0
333.905
369.5806
487.6292
521.0721
583.6701
635.6448
0.099911 0.519151 0.062459
334.0219
368.3162
479.5406
516.9804
593.6256
641.4829
0.099911 0.519151 0.124918
329.3699
375.1996
457.0255
507.3018
615.7963
654.5633
0.099911 0.519151 0.187377
325.1133
393.7655
426.2679
492.1228
639.6029
666.761
0.099911 0.519151 0.249836
332.8567
387.4845
422.3151
471.7923
658.6198
672.5849
0.099911 0.519151 -0.312295
355.4488
355.4488
447.678
447.678
669.9341
669.9341
0.199821 0.346101 0.0
312.4607
358.0342
457.2215
566.6789
570.0161
580.2707
0.199821 0.346101 0.062459
306.5106
362.8778
465.5841
532.8473
581.832
598.5496
0.199821 0.346101 0.124918
297.9057
375.5741
479.4817
494.3305
588.6183
621.4013
0.199821 0.346101 0.187377
299.6467
388.7872
458.3741
483.5908
602.8483
635.2361
0.199821 0.346101 0.249836
316.8583
379.5755
446.4561
475.4116
620.0845
639.1701
0.199821 0.346101 -0.312295
346.9417
346.9417
460.0466
460.0466
633.5352
633.5352
0.199821 0.461468 0.0
369.0209
406.2136
499.033
520.8741
571.4718
619.9706
0.199821 0.461468 0.062459
357.054
412.552
493.203
516.8441
585.6259
622.0255
0.199821 0.461468 0.124918
336.4742
421.313
467.6142
526.8221
605.8602
630.3345
0.199821 0.461468 0.187377
323.008
406.4117
464.2776
529.0352
623.3354
642.2624
0.199821 0.461468 0.249836
324.471
372.8528
482.4212
519.6289
638.5288
649.2966
0.199821 0.461468 -0.312295
342.532
342.532
502.7645
502.7645
647.979
647.979
0.199821 0.576834 0.0
399.7657
418.7084
491.5943
522.8129
565.7122
632.6137
0.199821 0.576834 0.062459
382.2444
431.3977
469.8407
537.5767
575.9658
634.1568
0.199821 0.576834 0.124918
356.3692
435.163
450.0297
549.4705
599.1116
639.9164
0.199821 0.576834 0.187377
336.3695
399.0808
471.6212
547.614
623.3722
648.4879
0.199821 0.576834 0.249836
330.0248
365.6938
494.8073
535.4365
641.9861
654.0417
0.199821 0.576834 -0.312295
340.6454
340.6454
516.9422
516.9422
652.3403
652.3403
0.299732 0.519151 0.0
417.3571
473.9162
475.6612
524.8739
553.6462
628.1959
0.299732 0.519151 0.062459
402.5987
452.1556
484.9328
538.813
568.2257
625.9674
0.299732 0.519151 0.124918
374.1256
418.2556
497.981
563.7359
594.1285
620.9898
0.299732 0.519151 0.187377
348.6202
383.5377
516.1972
578.128
616.1685
620.1909
0.299732 0.519151 0.249836
334.5667
354.3305
536.8828
572.6082
627.9355
629.5296
0.299732 0.519151 -0.312295
336.523
336.523
556.7639
556.7639
633.0722
633.0722
P	=	3400.23	V	=	89.28339	E	=	-655.12008582
0.0 0.0 0.0
-0.0
0.0
0.0
364.724
364.7241
702.3893
0.0 0.0 0.062457
56.1839
56.1839
127.9672
360.2724
360.2724
695.9295
0.0 0.0 0.124914
110.2122
110.2122
250.3972
346.6334
346.6334
676.7152
0.0 0.0 0.187371
160.9946
160.9947
323.4886
323.4886
362.0168
644.7434
0.0 0.0 0.249828
208.4566
208.4566
291.4624
291.4624
458.5171
599.0053
0.0 0.0 -0.312285
252.3902
252.3902
252.3902
252.3902
537.5119
537.5119
0.0 0.115367 0.0
102.7909
111.9025
229.4107
381.5961
413.0995
690.6532
0.0 0.115367 0.062457
125.8966
130.1489
253.6972
377.5468
408.4328
685.0256
0.0 0.115367 0.124914
159.0615
176.4467
318.4987
365.1318
394.3657
668.2839
0.0 0.115367 0.187371
199.1622
220.5542
344.0529
370.8845
400.3401
640.3909
0.0 0.115367 0.249828
240.1963
262.6238
314.9108
339.7218
479.3001
600.4359
0.0 0.115367 -0.312285
279.5071
279.5071
302.8103
302.8103
546.915
546.915
0.0 0.230735 0.0
198.6214
204.3052
415.0986
418.4603
510.11
657.3639
0.0 0.230735 0.062457
209.2854
213.0516
415.1074
427.1792
503.3151
655.5478
0.0 0.230735 0.124914
236.08
237.9783
404.8278
457.6386
485.0942
649.3557
0.0 0.230735 0.187371
267.011
277.7096
387.3492
449.8637
504.6154
636.9547
0.0 0.230735 0.249828
300.6028
322.3558
363.0877
411.6079
547.8438
616.3382
0.0 0.230735 -0.312285
333.4659
333.4659
367.9682
367.9682
586.3737
586.3737
0.0 0.346102 0.0
264.4765
281.7969
453.2086
532.8504
594.2296
608.8537
0.0 0.346102 0.062457
271.6211
283.7742
450.1901
538.8231
571.4671
628.2753
0.0 0.346102 0.124914
291.0242
292.6225
441.0232
523.1012
572.2868
646.2728
0.0 0.346102 0.187371
312.9761
318.1046
425.5818
481.7868
598.5635
655.4319
0.0 0.346102 0.249828
345.8916
348.2202
404.1584
435.3104
624.3715
654.6186
0.0 0.346102 -0.312285
377.7714
377.7714
388.346
388.346
643.897
643.897
0.0 0.461469 0.0
292.6641
346.8577
475.006
557.7278
589.405
641.3428
0.0 0.461469 0.062457
299.1294
343.3913
471.9184
542.6709
600.478
650.3854
0.0 0.461469 0.124914
317.0483
338.0656
462.6848
511.2875
623.3272
667.3588
0.0 0.461469 0.187371
340.5682
342.7578
447.429
472.3675
648.2409
680.8037
0.0 0.461469 0.249828
357.5278
371.9371
426.5073
429.804
668.8672
686.0423
0.0 0.461469 -0.312285
389.1118
389.1118
400.778
400.778
681.9291
681.9291
0.0 -0.576836 0.0
299.745
376.454
482.1561
531.1963
605.1259
654.7401
0.0 -0.576836 0.062457
306.0072
370.2312
478.9698
521.6983
614.8638
661.7689
0.0 -0.576836 0.124914
323.5156
358.2898
469.505
497.1635
637.5764
676.692
0.0 -0.576836 0.187371
348.9438
352.804
454.0104
463.1625
662.2413
689.9887
0.0 -0.576836 0.249828
362.2744
378.0857
424.5125
432.9061
681.8483
696.188
0.0 -0.576836 -0.312285
388.0678
388.0678
407.0318
407.0318
693.4777
693.4777
0.099911 0.173051 0.0
174.0623
197.6124
352.0266
427.518
476.2413
668.0842
0.099911 0.173051 0.062457
186.2833
206.4312
365.2875
426.2145
470.367
664.6539
0.099911 0.173051 0.124914
217.4709
229.5524
388.7616
432.5245
453.0868
654.1897
0.099911 0.173051 0.187371
257.7149
260.3683
383.5631
425.7198
472.9466
635.9653
0.099911 0.173051 0.249828
293.1325
299.2099
363.2828
391.0595
524.3854
608.6591
0.099911 0.173051 -0.312285
319.5071
319.5071
356.8897
356.8897
571.2051
571.2051
0.099911 0.288418 0.0
254.5661
277.6804
430.416
514.2839
555.0585
626.7586
0.099911 0.288418 0.062457
255.5804
285.5188
434.5627
516.6058
544.4843
631.993
0.099911 0.288418 0.124914
264.4777
305.0095
438.1683
505.9164
541.246
639.7945
0.099911 0.288418 0.187371
286.4491
330.5884
430.5367
470.7715
565.6067
641.8492
0.099911 0.288418 0.249828
319.3844
355.3779
412.2524
433.7355
594.3881
635.0505
0.099911 0.288418 -0.312285
353.5218
353.5218
407.3079
407.3079
618.8073
618.8073
0.099911 0.403785 0.0
322.8522
325.6492
475.2704
570.8489
575.2878
619.2077
0.099911 0.403785 0.062457
314.7883
336.2175
475.0238
549.2633
586.8547
631.431
0.099911 0.403785 0.124914
308.785
354.0202
468.2018
518.6242
604.6297
650.4515
0.099911 0.403785 0.187371
312.9416
376.5648
447.0441
490.2491
627.104
663.6416
0.099911 0.403785 0.249828
331.5638
389.593
425.1193
465.5646
647.815
667.6919
0.099911 0.403785 -0.312285
362.2179
362.2179
441.1646
441.1646
662.1113
662.1113
0.099911 0.519153 0.0
339.9627
376.0611
496.6098
531.0575
594.9444
648.5713
0.099911 0.519153 0.062457
339.9896
374.9491
488.371
526.8917
605.1337
654.5498
0.099911 0.519153 0.124914
335.2573
382.1325
465.4822
517.0019
627.8362
667.9525
0.099911 0.519153 0.187371
331.0973
401.0234
434.2348
501.4653
652.2522
680.4303
0.099911 0.519153 0.249828
339.09
394.7188
430.1692
480.6686
671.8076
686.3267
0.099911 0.519153 -0.312285
362.1235
362.1235
456.0324
456.0324
683.504
683.504
0.199822 0.346102 0.0
317.82
364.4245
465.3421
577.3253
581.3445
592.1103
0.199822 0.346102 0.062457
311.8133
369.3382
473.8426
542.9971
593.6951
610.3222
0.199822 0.346102 0.124914
303.1475
382.2223
488.0038
503.6934
600.578
633.7778
0.199822 0.346102 0.187371
304.9919
395.6231
467.0639
492.2696
615.012
647.9795
0.199822 0.346102 0.249828
322.5519
386.3297
454.7974
484.0426
632.536
652.0129
0.199822 0.346102 -0.312285
353.1853
353.1853
468.4908
468.4908
646.2516
646.2516
0.199822 0.461469 0.0
375.4254
413.6163
508.0751
530.8323
582.3867
632.571
0.199822 0.461469 0.062457
363.2936
420.0502
502.3238
526.4953
596.9662
634.6301
0.199822 0.461469 0.124914
342.4576
428.8992
476.4463
536.5684
617.8179
643.0237
0.199822 0.461469 0.187371
328.8856
413.8228
473.0161
538.8848
635.7459
655.1793
0.199822 0.461469 0.249828
330.4837
379.7695
491.4547
529.3511
651.2996
662.3661
0.199822 0.461469 -0.312285
348.9214
348.9214
512.1829
512.1829
660.9942
660.9942
0.199822 0.576836 0.0
406.7965
426.4148
500.7675
532.4173
576.521
645.4506
0.199822 0.576836 0.062457
388.9935
439.3653
478.4984
547.6357
586.9856
647.0071
0.199822 0.576836 0.124914
362.7504
443.171
458.3913
559.9022
610.6637
652.8602
0.199822 0.576836 0.187371
342.549
406.4931
480.4247
558.061
635.5549
661.6037
0.199822 0.576836 0.249828
336.2241
372.5708
504.1124
545.6367
654.7126
667.2454
0.199822 0.576836 -0.312285
347.0931
347.0931
526.7396
526.7396
665.4215
665.4215
0.299733 0.519153 0.0
424.7296
482.6229
484.5862
534.5449
564.0348
640.8683
0.299733 0.519153 0.062457
409.7332
460.3873
494.0802
548.8015
578.9775
638.5584
0.299733 0.519153 0.124914
380.8401
425.8824
507.3637
574.3299
605.5655
633.4017
0.299733 0.519153 0.187371
355.0249
390.6365
525.9418
589.156
628.2198
632.5024
0.299733 0.519153 0.249828
340.8658
361.013
547.0981
583.6186
640.3713
641.9668
0.299733 0.519153 -0.312285
342.9261
342.9261
567.443
567.443
645.6217
645.6217
P	=	3599.82	V	=	88.10309	E	=	-655.09200752
0.0 0.0 0.0
-0.0
0.0
0.0
370.7554
370.7554
716.6908
0.0 0.0 0.062454
57.2476
57.2476
130.4696
366.2547
366.2547
710.0373
0.0 0.0 0.124909
112.2017
112.2017
255.1671
352.43
352.43
690.2356
0.0 0.0 0.187363
163.7445
163.7445
328.8983
328.8983
368.7207
657.299
0.0 0.0 0.249818
211.8887
211.8887
296.2849
296.2849
466.8834
610.3051
0.0 0.0 -0.312272
256.5179
256.5179
256.5179
256.5179
547.3924
547.3924
0.0 0.115367 0.0
104.5159
113.6442
233.6411
387.9662
420.0365
704.6268
0.0 0.115367 0.062454
127.9357
132.3747
258.453
383.8636
415.308
698.8355
0.0 0.115367 0.124909
161.7248
179.4185
324.5474
371.2605
401.0311
681.598
0.0 0.115367 0.187363
202.4778
224.1882
349.8131
377.1284
407.8816
652.891
0.0 0.115367 0.249818
244.1411
266.9082
320.1305
345.382
488.2284
611.8727
0.0 0.115367 -0.312272
284.0928
284.0928
307.7819
307.7819
557.1405
557.1405
0.0 0.230734 0.0
201.9333
207.6199
422.7869
425.5756
518.9728
670.3987
0.0 0.230734 0.062454
212.8129
216.5311
422.1601
435.0981
512.0725
668.527
0.0 0.230734 0.124909
239.9719
242.0191
411.6839
466.0261
493.6751
662.1455
0.0 0.230734 0.187363
271.4222
282.3879
393.8654
457.5554
514.1708
649.3836
0.0 0.230734 0.249818
305.5634
327.7521
369.1406
418.5968
558.242
628.2266
0.0 0.230734 -0.312272
338.9828
338.9828
374.1541
374.1541
597.5709
597.5709
0.0 0.346101 0.0
269.0242
286.4623
461.0454
542.6992
605.0669
620.5158
0.0 0.346101 0.062454
276.2673
288.5454
457.9595
548.6446
582.1085
640.2318
0.0 0.346101 0.124909
295.9462
297.6758
448.5921
532.3948
583.1355
658.6699
0.0 0.346101 0.187363
318.4528
323.4331
432.8255
490.3228
609.9024
668.0586
0.0 0.346101 0.249818
351.9516
354.0326
410.9748
442.9808
636.2546
667.2146
0.0 0.346101 -0.312272
384.0956
384.0956
395.1574
395.1574
656.2259
656.2259
0.0 0.461468 0.0
297.9889
352.5977
483.3142
567.9719
600.2895
653.5491
0.0 0.461468 0.062454
304.4985
349.1886
480.1639
552.5746
611.6265
662.8195
0.0 0.461468 0.124909
322.5742
343.9896
470.7397
520.574
634.9644
680.2357
0.0 0.461468 0.187363
346.6674
348.5874
455.1637
480.9184
660.4435
694.0147
0.0 0.461468 0.249818
363.9455
378.2072
433.8056
437.5455
681.5931
699.3343
0.0 0.461468 -0.312272
396.0915
396.0915
407.5649
407.5649
695.0417
695.0417
0.0 -0.576835 0.0
305.3359
382.7128
490.6235
540.7292
616.3169
667.4049
0.0 -0.576835 0.062454
311.6184
376.515
487.3788
531.0965
626.2258
674.6108
0.0 -0.576835 0.124909
329.2301
364.6096
477.7314
506.1796
649.395
689.9126
0.0 -0.576835 0.187363
354.9162
359.1681
461.9181
471.5829
674.6438
703.5122
0.0 -0.576835 0.249818
368.8163
384.4838
432.2
440.3656
694.8035
709.7695
0.0 -0.576835 -0.312272
395.0631
395.0631
413.9592
413.9592
706.8511
706.8511
0.099911 0.173051 0.0
176.9714
200.7865
358.3074
435.0515
484.3781
681.4223
0.099911 0.173051 0.062454
189.421
209.7822
371.7699
433.8046
478.4057
677.8959
0.099911 0.173051 0.124909
221.1226
233.3355
395.3703
440.617
460.826
667.132
0.099911 0.173051 0.187363
261.9677
264.6742
389.9904
432.9591
481.9277
648.3939
0.099911 0.173051 0.249818
297.9593
304.0906
369.369
397.6481
534.3309
620.3828
0.099911 0.173051 -0.312272
324.7212
324.7212
362.8769
362.8769
582.0843
582.0843
0.099911 0.288418 0.0
258.7925
282.2883
437.7245
523.8745
564.9639
638.9262
0.099911 0.288418 0.062454
259.8608
290.2668
441.9119
526.1439
554.337
644.2457
0.099911 0.288418 0.124909
268.9599
310.1002
445.5505
514.7675
551.5689
652.193
0.099911 0.288418 0.187363
291.3041
336.1081
437.8045
478.9658
576.3991
654.2693
0.099911 0.288418 0.249818
324.754
361.2766
419.278
441.2467
605.7396
647.2892
0.099911 0.288418 -0.312272
359.3882
359.3882
414.3327
414.3327
630.6715
630.6715
0.099911 0.403785 0.0
328.4593
331.0342
483.4239
581.3896
586.0143
630.8579
0.099911 0.403785 0.062454
320.1123
341.9799
483.1648
559.2251
597.9606
643.3542
0.099911 0.403785 0.124909
314.0745
360.1009
476.2252
527.9394
616.0933
662.8578
0.099911 0.403785 0.187363
318.3593
382.9896
454.7623
498.9649
639.0123
676.3913
0.099911 0.403785 0.249818
337.2956
396.1795
432.5736
473.7416
660.1735
680.5381
0.099911 0.403785 -0.312272
368.4309
368.4309
448.865
448.865
674.8097
674.8097
0.099911 0.519152 0.0
346.0857
382.3077
505.2484
540.5921
605.9005
661.0694
0.099911 0.519152 0.062454
345.9781
381.3646
496.8362
536.3931
616.2889
667.1823
0.099911 0.519152 0.124909
341.0458
388.8656
473.5423
526.3502
639.4642
680.9009
0.099911 0.519152 0.187363
336.8607
408.0378
441.7954
510.4826
664.4546
693.6589
0.099911 0.519152 0.249818
345.0028
401.5594
437.7178
489.2206
684.5437
699.6292
0.099911 0.519152 -0.312272
368.4192
368.4192
464.0628
464.0628
696.6301
696.6301
0.199822 0.346101 0.0
323.0779
370.5803
473.232
587.6262
592.2392
603.5581
0.199822 0.346101 0.062454
317.0214
375.5686
481.8572
552.7504
605.1799
621.7012
0.199822 0.346101 0.124909
308.2997
388.6418
496.2567
512.6534
612.1936
645.7593
0.199822 0.346101 0.187363
310.2295
402.2031
475.3831
500.6593
626.8666
660.344
0.199822 0.346101 0.249818
328.0856
392.7853
462.8439
492.3781
644.692
664.5108
0.199822 0.346101 -0.312272
359.1892
359.1892
476.6454
476.6454
658.6577
658.6577
0.199822 0.461468 0.0
381.6525
420.8084
516.812
540.3695
592.9458
644.7632
0.199822 0.461468 0.062454
369.374
427.3164
511.0566
535.7916
607.9325
646.8293
0.199822 0.461468 0.124909
348.2785
436.1986
484.8638
545.9677
629.3899
655.3027
0.199822 0.461468 0.187363
334.552
420.8139
481.425
548.3798
647.7721
667.6758
0.199822 0.461468 0.249818
336.2068
386.2563
500.1579
538.7169
663.6831
675.021
0.199822 0.461468 -0.312272
354.9382
354.9382
521.2526
521.2526
673.6105
673.6105
0.199822 0.576835 0.0
413.5938
433.9494
509.5444
541.6459
586.9986
657.8681
0.199822 0.576835 0.062454
395.5466
447.1117
486.7452
557.3197
597.65
659.4371
0.199822 0.576835 0.124909
368.915
450.7357
466.4956
569.9617
621.8142
665.3765
0.199822 0.576835 0.187363
348.4385
413.4348
488.9313
568.135
647.3031
674.2829
0.199822 0.576835 0.249818
342.0462
378.9747
513.0768
555.459
666.9941
680.0074
0.199822 0.576835 -0.312272
353.0981
353.0981
536.1662
536.1662
678.0583
678.0583
0.299732 0.519152 0.0
431.8587
490.9776
493.184
543.9085
574.0535
653.1236
0.299732 0.519152 0.062454
416.6197
468.2572
502.8946
558.4586
589.3468
650.7363
0.299732 0.519152 0.124909
387.2727
433.0944
516.4192
584.553
616.5931
645.4051
0.299732 0.519152 0.187363
361.0848
397.2672
535.3422
599.7842
639.844
644.4037
0.299732 0.519152 0.249818
346.7504
367.2062
556.9323
594.2126
652.3936
653.9767
0.299732 0.519152 -0.312272
348.8609
348.8609
577.7104
577.7104
657.7517
657.7517
P	=	3799.97	V	=	86.98225	E	=	-655.06381929
0.0 0.0 0.0
-0.0
-0.0
-0.0
376.6276
376.6276
730.6489
0.0 0.0 0.062452
58.1049
58.1049
132.6462
372.0554
372.0554
723.7469
0.0 0.0 0.124904
113.8978
113.8978
259.6229
358.01
358.01
703.3238
0.0 0.0 0.187356
166.2516
166.2516
334.0997
334.0997
375.4713
669.6205
0.0 0.0 0.249809
215.1753
215.1753
300.9563
300.9563
475.6814
621.779
0.0 0.0 -0.312261
260.5371
260.5371
260.5371
260.5371
557.7628
557.7628
0.0 0.115369 0.0
106.1736
115.3457
237.8622
394.1432
426.8177
718.262
0.0 0.115369 0.062452
129.856
134.4288
263.0621
389.9677
421.9961
712.2634
0.0 0.115369 0.124904
164.1717
182.2487
330.2723
377.1454
407.4428
694.5025
0.0 0.115369 0.187356
205.5768
227.7457
355.3354
383.0841
415.2393
665.1298
0.0 0.115369 0.249809
247.9204
271.1063
325.1605
350.7871
497.2691
623.3382
0.0 0.115369 -0.312261
288.5293
288.5293
312.5886
312.5886
567.5829
567.5829
0.0 0.230737 0.0
205.0893
210.8479
430.4522
432.4485
527.6873
683.1242
0.0 0.230737 0.062452
216.1465
219.8914
428.9597
442.9195
520.6406
681.1759
0.0 0.230737 0.124904
243.691
245.8656
418.2719
474.1586
501.97
674.5831
0.0 0.230737 0.187356
275.642
286.9445
400.1228
464.909
523.3528
661.4872
0.0 0.230737 0.249809
310.3407
333.0399
374.9706
425.2716
568.2916
639.8356
0.0 0.230737 -0.312261
344.3106
344.3106
380.1378
380.1378
608.4821
608.4821
0.0 0.346106 0.0
273.4299
290.8967
468.6419
552.509
615.7683
631.9287
0.0 0.346106 0.062452
280.7698
293.0846
465.4854
558.3745
592.5617
651.9498
0.0 0.346106 0.124904
300.7255
302.4998
455.9167
541.4836
593.7436
670.7742
0.0 0.346106 0.187356
323.7081
328.6262
439.8425
498.6035
620.8926
680.3306
0.0 0.346106 0.249809
357.7877
359.7115
417.6012
450.386
647.7199
679.4055
0.0 0.346106 -0.312261
390.2675
390.2675
401.7234
401.7234
668.1231
668.1231
0.0 0.461474 0.0
303.1181
358.093
491.4279
578.0187
611.1371
665.618
0.0 0.461474 0.062452
309.705
354.758
488.2092
562.3035
622.6825
675.0794
0.0 0.461474 0.124904
328.0103
349.7209
478.5892
529.6882
646.4191
692.8749
0.0 0.461474 0.187356
352.6077
354.3861
462.7117
489.294
672.3853
706.9383
0.0 0.461474 0.249809
370.2229
384.4541
440.9693
445.1224
694.0135
712.3127
0.0 0.461474 -0.312261
402.9252
402.9252
414.284
414.284
707.8342
707.8342
0.0 -0.576843 0.0
310.707
388.7444
498.924
550.0752
627.4781
679.9265
0.0 -0.576843 0.062452
317.0604
382.597
495.6115
540.3094
637.5163
687.2837
0.0 -0.576843 0.124904
334.8859
370.7819
485.7691
515.0161
661.0625
702.9172
0.0 -0.576843 0.187356
360.917
365.4443
469.6537
479.8482
686.8374
716.7908
0.0 -0.576843 0.249809
375.3109
390.9204
439.7824
447.7149
707.5255
723.1026
0.0 -0.576843 -0.312261
402.0028
402.0028
420.8631
420.8631
719.9826
719.9826
0.099912 0.173053 0.0
179.7474
203.8973
364.5442
442.3781
492.3609
694.4403
0.099912 0.173053 0.062452
192.3757
213.0269
378.1271
441.1672
486.2543
690.7904
0.099912 0.173053 0.124904
224.6038
236.9376
401.7342
448.4053
468.2915
679.7049
0.099912 0.173053 0.187356
266.1484
268.7646
396.1562
439.8646
490.5551
660.5161
0.099912 0.173053 0.249809
302.5781
308.9162
375.2065
403.9342
544.0192
631.9098
0.099912 0.173053 -0.312261
329.7664
329.7664
368.6441
368.6441
592.7984
592.7984
0.099912 0.288421 0.0
262.8006
286.8018
444.8882
533.3185
574.7166
650.8249
0.099912 0.288421 0.062452
263.9193
294.8956
449.0817
535.5094
564.0041
656.2183
0.099912 0.288421 0.124904
273.2283
315.0218
452.7005
523.3957
561.6098
664.276
0.099912 0.288421 0.187356
295.9823
341.4155
444.8202
486.8834
586.8151
666.3328
0.099912 0.288421 0.249809
329.9726
366.9517
426.052
448.462
616.666
659.1353
0.099912 0.288421 -0.312261
365.0853
365.0853
421.0698
421.0698
642.1146
642.1146
0.099912 0.40379 0.0
333.9267
336.1583
491.3976
591.8358
596.5363
642.3386
0.099912 0.40379 0.062452
325.2173
347.584
491.1136
569.0491
608.8916
655.0721
0.099912 0.40379 0.124904
319.1711
366.0369
484.0607
537.0842
627.3271
674.9985
0.099912 0.40379 0.187356
323.6225
389.2493
462.3345
507.4485
650.6163
688.8172
0.099912 0.40379 0.249809
342.8951
402.6051
439.8619
481.6643
672.171
693.0178
0.099912 0.40379 -0.312261
374.515
374.515
456.3326
456.3326
687.1263
687.1263
0.099912 0.519158 0.0
352.0295
388.3119
513.7053
549.9502
616.804
673.3772
0.099912 0.519158 0.062452
351.7907
387.5958
505.1463
545.6977
627.3517
679.6124
0.099912 0.519158 0.124904
346.7046
395.4939
481.4957
535.4676
650.9302
693.6175
0.099912 0.519158 0.187356
342.5693
414.9684
449.2902
519.2671
676.4379
706.6286
0.099912 0.519158 0.249809
350.9055
408.3553
445.1724
497.5708
697.0257
712.6598
0.099912 0.519158 -0.312261
374.7036
374.7036
471.9437
471.9437
709.486
709.486
0.199824 0.346106 0.0
328.0622
376.644
481.0014
597.7742
602.9302
614.7707
0.199824 0.346106 0.062452
321.9819
381.6869
489.7306
562.3612
616.4182
632.8557
0.199824 0.346106 0.124904
313.252
394.8981
504.3248
521.4889
623.5279
657.461
0.199824 0.346106 0.187356
315.3007
408.5778
483.5529
508.8131
638.388
672.3697
0.199824 0.346106 0.249809
333.4653
399.0761
470.6337
500.431
656.4659
676.6225
0.199824 0.346106 -0.312261
365.0429
365.0429
484.498
484.498
670.6603
670.6603
0.199824 0.461474 0.0
387.6124
427.8884
525.3989
549.747
603.3674
656.6707
0.199824 0.461474 0.062452
375.2308
434.4671
519.6635
544.9442
618.7148
658.7569
0.199824 0.461474 0.124904
353.9616
443.3725
493.2265
555.1759
640.7327
667.3256
0.199824 0.461474 0.187356
340.1499
427.7459
489.7021
557.6479
659.5413
679.8937
0.199824 0.461474 0.249809
341.887
392.7112
508.6486
547.8334
675.773
687.3654
0.199824 0.461474 -0.312261
360.9181
360.9181
530.0724
530.0724
685.9083
685.9083
0.199824 0.576843 0.0
420.1561
441.3534
518.1602
550.6743
597.3867
669.981
0.199824 0.576843 0.062452
401.9074
454.746
494.8821
566.7746
608.2025
671.5828
0.199824 0.576843 0.124904
374.9824
458.2651
474.5037
579.7716
632.8107
677.6411
0.199824 0.576843 0.187356
354.3224
420.3933
497.3126
577.9631
658.8495
686.7108
0.199824 0.576843 0.249809
347.9023
385.413
521.8668
565.048
679.0257
692.4978
0.199824 0.576843 -0.312261
359.1407
359.1407
545.3797
545.3797
690.4182
690.4182
0.299736 0.519158 0.0
438.7645
499.1708
501.7078
553.0901
583.9048
665.0069
0.299736 0.519158 0.062452
423.3371
476.0121
511.639
567.9338
599.5299
662.5716
0.299736 0.519158 0.124904
393.6458
440.2824
525.3816
594.5863
627.4106
657.1329
0.299736 0.519158 0.187356
367.1693
403.9424
544.5982
610.1939
651.2162
656.0722
0.299736 0.519158 0.249809
352.6827
373.4561
566.5751
604.5862
664.1418
665.6854
0.299736 0.519158 -0.312261
354.8428
354.8428
587.7638
587.7638
669.5671
669.5671
P	=	4000.01	V	=	85.91889	E	=	-655.03562998
0.0 0.0 0.0
0.0
0.0
0.0
382.3762
382.3762
744.2338
0.0 0.0 0.06245
58.9971
58.9971
134.8523
377.7408
377.7408
737.1208
0.0 0.0 0.1249
115.6242
115.6242
263.9508
363.4892
363.4892
716.1055
0.0 0.0 0.18735
168.7408
168.7408
339.2025
339.2025
381.7576
681.5209
0.0 0.0 0.2498
218.3845
218.3845
305.5183
305.5183
483.7053
632.5867
0.0 0.0 -0.31225
264.4463
264.4463
264.4463
264.4463
567.2866
567.2866
0.0 0.11537 0.0
107.6844
117.0038
241.7592
400.1938
433.3032
731.5168
0.0 0.11537 0.06245
131.7424
136.3912
267.4468
395.9537
428.4306
725.342
0.0 0.11537 0.1249
166.5855
184.9088
335.896
382.9273
413.6909
707.0856
0.0 0.11537 0.18735
208.6163
231.0367
360.76
388.9321
422.3713
676.9717
0.0 0.11537 0.2498
251.6063
275.0247
330.0853
356.0611
505.8286
634.2552
0.0 0.11537 -0.31225
292.8561
292.8561
317.1811
317.1811
577.4092
577.4092
0.0 0.23074 0.0
208.0922
213.9675
437.5937
439.1524
535.8313
695.466
0.0 0.23074 0.06245
219.3714
223.1448
435.5956
450.3122
528.7286
693.4491
0.0 0.23074 0.1249
247.3014
249.5848
424.7068
482.0409
509.9835
686.6612
0.0 0.23074 0.18735
279.7417
291.2106
406.2343
472.0497
532.4361
673.2467
0.0 0.23074 0.2498
314.983
337.8997
380.6556
431.6699
578.2165
651.1334
0.0 0.23074 -0.31225
349.4947
349.4947
385.7179
385.7179
619.1637
619.1637
0.0 0.34611 0.0
277.6267
295.2804
475.9633
561.6944
625.8091
643.0106
0.0 0.34611 0.06245
285.0712
297.5722
472.7381
567.553
602.5525
663.2117
0.0 0.34611 0.1249
305.3156
307.241
462.9729
550.1724
604.0059
682.451
0.0 0.34611 0.18735
328.7735
333.6279
446.5971
506.5292
631.6401
692.2354
0.0 0.34611 0.2498
363.2926
365.1802
423.9754
457.406
658.9625
691.2864
0.0 0.34611 -0.31225
396.2052
396.2052
407.8854
407.8854
679.762
679.762
0.0 0.46148 0.0
307.9264
363.5833
499.1474
587.884
621.297
677.126
0.0 0.46148 0.06245
314.6047
360.285
495.8636
571.7633
633.1274
686.8367
0.0 0.46148 0.1249
333.1629
355.3319
486.0547
538.4527
657.3502
705.0638
0.0 0.46148 0.18735
358.3319
359.9028
469.883
497.2653
683.841
719.4036
0.0 0.46148 0.2498
376.1748
390.3932
447.7678
452.2672
705.9361
724.7984
0.0 0.46148 -0.31225
409.35
409.35
420.6615
420.6615
720.1162
720.1162
0.0 -0.57685 0.0
315.7054
394.7285
506.7778
559.3685
637.935
691.9559
0.0 -0.57685 0.06245
322.1457
388.5897
503.4027
549.3807
648.1404
699.5023
0.0 -0.57685 0.1249
340.2111
376.7842
493.3758
523.5557
672.1142
715.4864
0.0 -0.57685 0.18735
366.5887
371.4629
476.9672
487.7018
698.4163
729.5757
0.0 -0.57685 0.2498
381.4506
397.0003
446.9045
454.652
719.6061
735.8528
0.0 -0.57685 -0.31225
408.5064
408.5064
427.3764
427.3764
732.4737
732.4737
0.099913 0.173055 0.0
182.3548
206.8987
370.4159
449.434
499.8485
707.0703
0.099913 0.173055 0.06245
195.2146
216.1693
384.2111
448.271
493.6841
703.3149
0.099913 0.173055 0.1249
227.9371
240.446
407.9682
455.9999
475.4964
691.9304
0.099913 0.173055 0.18735
270.0155
272.7574
402.1845
446.6
499.0904
672.2813
0.099913 0.173055 0.2498
307.0875
313.3502
380.8797
409.9896
553.5349
643.0691
0.099913 0.173055 -0.31225
334.6517
334.6517
374.0807
374.0807
603.2059
603.2059
0.099913 0.288425 0.0
266.7123
291.1291
451.7742
542.2146
583.8279
662.3476
0.099913 0.288425 0.06245
267.8998
299.3518
456.0047
544.3695
573.1624
667.7859
0.099913 0.288425 0.1249
277.4052
319.7938
459.6318
531.6401
571.3532
675.9622
0.099913 0.288425 0.18735
300.4516
346.5804
451.6131
494.4878
597.0736
678.0592
0.099913 0.288425 0.2498
334.8584
372.4647
432.5534
455.354
627.4629
670.7205
0.099913 0.288425 -0.31225
370.4878
370.4878
427.5008
427.5008
653.3748
653.3748
0.099913 0.403795 0.0
339.1144
341.2636
499.0191
601.6184
606.764
653.2442
0.099913 0.403795 0.06245
330.2235
352.986
498.7164
578.4399
619.3267
666.2778
0.099913 0.403795 0.1249
324.1609
371.7583
491.5485
545.8396
638.1453
686.6893
0.099913 0.403795 0.18735
328.6891
395.3033
469.5332
515.5718
661.8728
700.8304
0.099913 0.403795 0.2498
348.18
408.7599
446.7853
489.2565
683.8252
705.1061
0.099913 0.403795 -0.31225
380.2286
380.2286
463.4926
463.4926
699.0741
699.0741
0.099913 0.519165 0.0
357.6204
394.2642
521.731
559.1665
627.0328
685.208
0.099913 0.519165 0.06245
357.3369
393.672
513.0625
554.7622
637.7853
691.5957
0.099913 0.519165 0.1249
352.1878
401.8376
489.0678
544.2342
661.8265
705.9085
0.099913 0.519165 0.18735
348.0386
421.5994
456.3618
527.6675
687.8658
719.1339
0.099913 0.519165 0.2498
356.4554
414.7147
452.2911
505.5456
708.9363
725.161
0.099913 0.519165 -0.31225
380.5532
380.5532
479.4739
479.4739
721.7705
721.7705
0.199827 0.34611 0.0
333.0097
382.4293
488.4258
607.2088
613.2653
625.5
0.199827 0.34611 0.06245
326.8974
387.5521
497.2778
571.468
627.2161
643.4997
0.199827 0.34611 0.1249
318.1194
400.9567
512.0855
529.8844
634.5242
668.7005
0.199827 0.34611 0.18735
320.1827
414.792
491.3008
516.6637
649.6547
684.0
0.199827 0.34611 0.2498
338.531
405.1016
478.0767
508.1892
667.9955
688.3987
0.199827 0.34611 -0.31225
370.5399
370.5399
492.0571
492.0571
682.3804
682.3804
0.199827 0.46148 0.0
393.5129
434.6046
533.5996
558.8386
613.149
668.1416
0.199827 0.46148 0.06245
381.008
441.2853
527.9029
553.7299
628.9413
670.2636
0.199827 0.46148 0.1249
359.5168
450.2888
501.1648
564.0092
651.6063
678.9405
0.199827 0.46148 0.18735
345.5201
434.3796
497.5945
566.5448
670.8944
691.689
0.199827 0.46148 0.2498
347.2201
398.7805
516.8024
556.5939
687.4452
699.2737
0.199827 0.46148 -0.31225
366.4877
366.4877
538.5536
538.5536
697.7719
697.7719
0.199827 0.57685 0.0
426.5849
448.3617
526.5762
559.2879
607.1927
681.6856
0.199827 0.57685 0.06245
408.1262
461.9886
502.758
575.8539
618.2014
683.3286
0.199827 0.57685 0.1249
380.8895
465.484
482.1251
589.1995
643.2917
689.5096
0.199827 0.57685 0.18735
359.9591
426.9764
505.3329
587.4072
669.8901
698.713
0.199827 0.57685 0.2498
353.3907
391.4147
530.3055
574.2617
690.5452
704.5149
0.199827 0.57685 -0.31225
364.7387
364.7387
554.2323
554.2323
702.2719
702.2719
0.29974 0.519165 0.0
445.5088
507.1068
509.7232
561.9219
593.2814
676.4951
0.29974 0.519165 0.06245
429.89
483.5045
519.8744
577.057
609.2716
674.0126
0.29974 0.519165 0.1249
399.8255
447.2006
533.8567
604.2575
637.8138
668.4657
0.29974 0.519165 0.18735
372.9767
410.2901
553.4065
620.2183
662.182
667.3459
0.29974 0.519165 0.2498
358.2298
379.2999
575.7897
614.5493
675.4918
676.9868
0.29974 0.519165 -0.31225
360.3842
360.3842
597.3953
597.3953
680.9765
680.9765
P	=	4999.94	V	=	81.30622	E	=	-654.89511163
0.0 0.0 0.0
-0.0
0.0
0.0
409.2334
409.2334
807.3303
0.0 0.0 0.06244
62.7772
62.7772
145.0857
404.3163
404.3163
799.2643
0.0 0.0 0.124881
123.1461
123.1461
283.9855
389.151
389.151
775.5402
0.0 0.0 0.187321
179.9675
179.9675
363.1907
363.1907
410.8085
736.8457
0.0 0.0 0.249762
233.2741
233.2741
327.0387
327.0387
520.783
682.7435
0.0 0.0 -0.312202
282.8465
282.8465
282.8465
282.8465
611.3727
611.3727
0.0 0.115387 0.0
115.2075
124.6982
260.279
428.3366
463.7693
793.1132
0.0 0.115387 0.06244
140.3461
145.6954
288.0153
423.8061
458.5798
786.1556
0.0 0.115387 0.124881
177.4552
197.2074
361.7896
409.8677
442.8316
765.642
0.0 0.115387 0.187321
222.4233
246.3383
386.0939
416.1973
454.9616
732.0238
0.0 0.115387 0.249762
268.6108
293.4447
353.1184
380.77
545.0028
684.8047
0.0 0.115387 -0.312202
313.0302
313.0302
338.8187
338.8187
622.6312
622.6312
0.0 0.230774 0.0
222.3063
228.4315
470.3027
471.4256
574.4103
752.8682
0.0 0.230774 0.06244
234.446
238.1547
466.4397
485.0402
566.8273
750.6101
0.0 0.230774 0.124881
263.8385
266.7673
454.6396
518.5229
547.306
742.9771
0.0 0.230774 0.187321
298.5093
311.1099
434.6761
505.4456
573.8044
727.8973
0.0 0.230774 0.249762
336.3475
360.9423
407.0845
461.8434
623.3422
703.2343
0.0 0.230774 -0.312202
373.5015
373.5015
412.2748
412.2748
667.9921
667.9921
0.0 0.346161 0.0
297.3475
315.1503
510.2297
605.353
673.3533
694.3967
0.0 0.346161 0.06244
305.2192
317.9644
506.6946
611.016
649.2288
715.8906
0.0 0.346161 0.124881
326.6854
328.93
496.0293
591.1393
651.5275
737.0302
0.0 0.346161 0.187321
352.2626
356.8361
478.2388
543.9633
681.1479
747.6923
0.0 0.346161 0.249762
389.275
390.5814
453.785
490.7855
710.7288
746.394
0.0 0.346161 -0.312202
423.8815
423.8815
437.254
437.254
733.5171
733.5171
0.0 0.461548 0.0
331.068
388.2646
535.5133
632.9636
670.0514
731.1777
0.0 0.461548 0.06244
338.108
385.3414
531.9331
615.4374
682.8379
741.8306
0.0 0.461548 0.124881
357.6998
381.1714
521.257
579.4048
708.9156
761.9051
0.0 0.461548 0.187321
385.0685
386.007
503.7144
534.902
737.6415
777.6127
0.0 0.461548 0.249762
404.3168
418.4099
479.8378
486.2562
761.8971
783.2727
0.0 0.461548 -0.312202
439.9477
439.9477
450.7328
450.7328
777.7492
777.7492
0.0 -0.576936 0.0
340.0638
421.9437
543.8542
601.1455
688.3414
748.2301
0.0 -0.576936 0.06244
346.8407
416.077
540.1923
590.5739
699.1269
756.4637
0.0 -0.576936 0.124881
365.8645
404.7319
529.3184
563.0692
724.7764
773.9492
0.0 -0.576936 0.187321
393.6975
399.8033
511.5559
524.6254
753.3884
789.2635
0.0 -0.576936 0.249762
410.581
425.9085
480.7276
487.4958
776.8708
795.7729
0.0 -0.576936 -0.312202
439.4795
439.4795
458.2598
458.2598
791.5098
791.5098
0.099928 0.173081 0.0
194.8851
220.7332
398.1722
482.3066
535.3089
765.8212
0.099928 0.173081 0.06244
208.6099
230.5562
412.7222
481.3233
528.7085
761.6302
0.099928 0.173081 0.124881
243.4253
256.3674
436.9039
490.9988
509.185
748.904
0.099928 0.173081 0.187321
288.1616
290.8955
430.1894
478.0541
537.9172
726.9629
0.099928 0.173081 0.249762
327.7439
334.4097
407.2505
438.5171
596.7611
694.5599
0.099928 0.173081 -0.312202
357.3449
357.3449
399.8139
399.8139
650.7874
650.7874
0.099928 0.288468 0.0
284.6988
311.0842
484.1616
584.0867
627.129
715.9893
0.099928 0.288468 0.06244
286.1783
319.8027
488.4511
585.977
616.3058
721.7984
0.099928 0.288468 0.124881
296.6136
341.5371
491.9777
570.5444
616.2708
730.5706
0.099928 0.288468 0.187321
321.2866
370.0938
483.2972
530.3876
643.9822
732.6113
0.099928 0.288468 0.249762
358.0034
397.7507
463.0936
487.912
676.7679
724.2288
0.099928 0.288468 -0.312202
395.9383
395.9383
457.7207
457.7207
705.014
705.014
0.099928 0.403855 0.0
363.4449
364.2501
534.9236
648.3298
654.1364
704.519
0.099928 0.403855 0.06244
353.1524
377.9352
534.4784
622.6474
668.2788
718.7926
0.099928 0.403855 0.124881
347.1329
398.1474
526.7798
587.0732
688.5634
741.3259
0.099928 0.403855 0.187321
352.3464
423.1598
503.677
553.7646
714.0883
756.8866
0.099928 0.403855 0.249762
373.2629
437.458
479.6289
524.8244
737.8959
761.4356
0.099928 0.403855 -0.312202
407.4868
407.4868
496.9993
496.9993
754.6365
754.6365
0.099928 0.519242 0.0
384.3188
421.3472
559.5641
601.1591
676.2401
740.451
0.099928 0.519242 0.06244
383.5167
421.7308
550.2479
596.5044
687.69
747.4013
0.099928 0.519242 0.124881
377.7959
431.5695
524.6886
585.0809
713.5066
763.0318
0.099928 0.519242 0.187321
373.7861
452.6383
489.965
566.9677
741.8225
777.4188
0.099928 0.519242 0.249762
382.922
445.0632
485.7418
542.8914
765.0875
783.7299
0.099928 0.519242 -0.312202
408.6348
408.6348
514.7577
514.7577
779.5691
779.5691
0.199856 0.346161 0.0
355.3747
409.0458
523.6568
652.538
661.494
675.4481
0.199856 0.346161 0.06244
349.1995
414.4125
532.8979
614.6765
677.3283
693.6912
0.199856 0.346161 0.124881
340.4025
428.4737
548.4157
569.8438
685.2227
721.4799
0.199856 0.346161 0.187321
342.9237
443.0041
528.3638
553.248
701.3971
738.3388
0.199856 0.346161 0.249762
362.6062
433.2707
513.1955
544.3064
721.0229
743.1247
0.199856 0.346161 -0.312202
396.7946
396.7946
527.3252
527.3252
736.5418
736.5418
0.199856 0.461548 0.0
420.3838
466.0006
572.3096
601.1787
660.0191
721.4726
0.199856 0.461548 0.06244
407.4292
472.9517
566.6491
595.0458
677.4187
723.6942
0.199856 0.461548 0.124881
385.1089
482.0606
538.9038
605.3143
702.5411
732.8864
0.199856 0.461548 0.187321
370.6315
465.3629
534.7527
607.9786
723.7182
746.6183
0.199856 0.461548 0.249762
372.6599
427.7407
554.8599
597.359
741.7518
754.8109
0.199856 0.461548 -0.312202
393.3016
393.3016
578.0548
578.0548
753.0736
753.0736
0.199856 0.576936 0.0
456.3104
481.4509
565.434
599.7124
654.1571
736.0501
0.199856 0.576936 0.06244
436.9154
496.099
539.3727
618.2082
665.8308
737.7981
0.199856 0.576936 0.124881
408.2889
499.2824
517.8819
633.0556
692.7713
744.4533
0.199856 0.576936 0.187321
386.4051
458.1384
542.7972
631.2777
721.7475
754.3977
0.199856 0.576936 0.249762
379.6241
420.2173
569.6372
617.0835
744.5608
760.5356
0.199856 0.576936 -0.312202
391.7745
391.7745
595.4379
595.4379
757.7508
757.7508
0.299785 0.519242 0.0
476.8004
544.2281
547.7462
603.3354
637.6077
729.8082
0.299785 0.519242 0.06244
460.3007
518.4932
558.9902
619.6621
655.0246
727.0327
0.299785 0.519242 0.124881
428.5445
479.5537
573.897
649.1717
686.3297
720.858
0.299785 0.519242 0.187321
400.2485
440.2469
594.7621
666.6802
713.1855
719.4725
0.299785 0.519242 0.249762
384.7784
407.3156
618.8899
660.8131
728.1282
729.5514
0.299785 0.519242 -0.312202
387.1828
387.1828
642.294
642.294
734.0184
734.0184
P	=	6000.04	V	=	77.56009	E	=	-654.7554339
0.0 0.0 0.0
-0.0
0.0
0.0
432.0522
432.0522
863.0546
0.0 0.0 0.062426
66.229
66.229
154.1615
426.9274
426.9274
854.1453
0.0 0.0 0.124852
129.8782
129.8782
301.7696
411.0442
411.0443
828.0359
0.0 0.0 0.187278
189.7837
189.7837
383.6831
383.6831
436.6123
785.7479
0.0 0.0 0.249704
246.0738
246.0738
345.4082
345.4082
553.7075
727.1444
0.0 0.0 -0.312131
298.5557
298.5557
298.5557
298.5557
650.4698
650.4698
0.0 0.115406 0.0
121.9733
131.304
276.6148
452.3974
489.8459
847.4879
0.0 0.115406 0.062426
147.8108
154.0205
306.2165
447.6379
484.4253
839.8477
0.0 0.115406 0.124852
186.9457
208.155
384.7582
432.95
467.8928
817.3691
0.0 0.115406 0.187278
234.3909
259.8036
407.7993
439.6706
483.8936
780.7026
0.0 0.115406 0.249704
283.211
309.437
372.8209
402.0387
579.762
729.559
0.0 0.115406 -0.312131
330.2776
330.2776
357.4654
357.4654
662.7192
662.7192
0.0 0.230813 0.0
234.8973
240.9914
497.1865
501.3086
607.894
803.4798
0.0 0.230813 0.062426
247.8467
251.2046
493.0598
515.7166
599.9603
801.0319
0.0 0.230813 0.124852
278.2163
282.0906
480.4629
550.467
580.1737
792.7024
0.0 0.230813 0.187278
314.7593
328.7795
459.1771
534.506
610.4829
776.1876
0.0 0.230813 0.249704
354.7489
381.2291
429.8045
488.1592
663.2654
749.2784
0.0 0.230813 -0.312131
394.1251
394.1251
435.5045
435.5045
711.1491
711.1491
0.0 0.346219 0.0
314.609
332.4552
539.9821
643.8894
715.2826
739.6254
0.0 0.346219 0.062426
322.8573
335.8136
536.1738
649.1612
690.5941
762.3148
0.0 0.346219 0.124852
345.3751
348.0731
524.7095
626.9793
693.7721
785.171
0.0 0.346219 0.187278
373.0602
377.065
505.6569
576.8318
725.0062
796.624
0.0 0.346219 0.249704
412.2412
412.6277
479.5831
520.1637
756.47
795.0089
0.0 0.346219 -0.312131
447.8384
447.8384
463.1503
463.1503
780.9493
780.9493
0.0 0.461625 0.0
351.3517
409.5326
567.2245
672.5609
713.2112
779.2836
0.0 0.461625 0.062426
358.7276
407.0303
563.3859
653.8146
726.8164
790.7189
0.0 0.461625 0.124852
379.2468
403.723
551.9481
615.4284
754.44
812.3662
0.0 0.461625 0.187278
408.5379
408.8991
533.1948
568.0623
785.0681
829.2186
0.0 0.461625 0.249704
429.0952
442.9023
507.7737
516.2372
811.2425
835.0209
0.0 0.461625 -0.312131
466.9317
466.9317
476.9517
476.9517
828.6498
828.6498
0.0 -0.577032 0.0
361.3995
445.3252
576.2447
637.8097
733.0758
798.4303
0.0 -0.577032 0.062426
368.5026
439.7911
572.3347
626.7542
744.2559
807.2525
0.0 -0.577032 0.124852
388.4166
429.0225
560.7219
597.8318
771.1764
826.0204
0.0 -0.577032 0.187278
417.5251
424.5743
541.7704
557.1655
801.734
842.3365
0.0 -0.577032 0.249704
436.1541
451.2546
510.5598
516.1861
827.3121
848.914
0.0 -0.577032 -0.312131
466.7629
466.7629
485.2685
485.2685
843.6873
843.6873
0.099945 0.17311 0.0
206.0444
232.7775
422.3415
511.0521
565.8593
817.6442
0.099945 0.17311 0.062426
220.5579
243.1099
437.4913
510.3388
558.9305
813.0897
0.099945 0.17311 0.124852
257.2217
270.275
461.8015
522.0482
538.3494
799.2271
0.099945 0.17311 0.187278
304.1763
306.6588
454.288
505.3502
572.3521
775.3055
0.099945 0.17311 0.249704
345.553
352.7464
429.9989
463.3038
635.0347
740.104
0.099945 0.17311 -0.312131
376.8023
376.8023
422.2281
422.2281
692.8857
692.8857
0.099945 0.288516 0.0
300.4937
328.5781
512.1442
621.0244
665.0966
763.2546
0.099945 0.288516 0.062426
302.2894
337.7564
516.4528
622.476
654.423
769.4077
0.099945 0.288516 0.124852
313.6124
360.6475
519.8674
604.4698
656.2609
778.7408
0.099945 0.288516 0.187278
339.6601
390.6963
510.6574
561.7883
685.609
780.7463
0.099945 0.288516 0.249704
378.2452
419.7524
489.604
516.4127
720.3672
771.4335
0.099945 0.288516 -0.312131
418.0191
418.0191
484.1407
484.1407
750.5864
750.5864
0.099945 0.403922 0.0
384.2149
384.8068
566.1197
689.5038
695.8289
750.0753
0.099945 0.403922 0.062426
373.1755
399.8375
565.5305
661.4469
711.6675
765.3091
0.099945 0.403922 0.124852
367.2888
421.3842
557.3731
623.2511
733.265
789.6454
0.099945 0.403922 0.187278
373.1262
447.6799
533.4051
587.237
760.2761
806.4164
0.099945 0.403922 0.249704
395.2531
462.6188
508.3448
555.9297
785.6289
811.1544
0.099945 0.403922 -0.312131
431.3476
431.3476
526.3048
526.3048
803.6518
803.6518
0.099945 0.519329 0.0
407.7395
444.7674
592.5735
638.084
719.8135
789.6847
0.099945 0.519329 0.062426
406.4428
446.1577
582.7253
633.1884
731.7968
797.117
0.099945 0.519329 0.124852
400.2291
457.6386
555.8665
620.9332
759.0308
813.8632
0.099945 0.519329 0.187278
396.3474
479.9213
519.4216
601.4205
789.2737
829.1803
0.099945 0.519329 0.249704
406.1152
471.7138
515.0706
575.5969
814.5145
835.5949
0.099945 0.519329 -0.312131
433.2656
433.2656
545.6581
545.6581
830.5847
830.5847
0.19989 0.346219 0.0
374.9187
432.5012
554.1479
692.1455
703.9971
719.9957
0.19989 0.346219 0.062426
368.7636
438.1107
563.6714
652.5304
722.0358
737.8585
0.19989 0.346219 0.124852
360.0486
452.7791
579.742
604.8988
730.4268
767.9616
0.19989 0.346219 0.187278
362.9513
467.8547
560.9209
584.8458
747.3727
786.2009
0.19989 0.346219 0.249704
383.7054
457.9215
544.0435
575.6414
767.9208
791.3209
0.19989 0.346219 -0.312131
419.7444
419.7444
558.1123
558.1123
784.2897
784.2897
0.19989 0.461625 0.0
443.8689
493.6138
606.0891
638.5237
701.2651
768.9326
0.19989 0.461625 0.062426
430.5916
500.8327
600.5265
631.3254
720.1254
771.2405
0.19989 0.461625 0.124852
407.6276
510.1089
572.0095
641.3243
747.4817
780.8028
0.19989 0.461625 0.187278
392.7148
492.6546
567.3929
644.058
770.3269
795.2191
0.19989 0.461625 0.249704
394.9596
453.165
588.2245
632.899
789.5919
803.793
0.19989 0.461625 -0.312131
416.7848
416.7848
612.5739
612.5739
801.7692
801.7692
0.19989 0.577032 0.0
482.3165
510.5196
599.7286
635.1051
695.6536
784.3454
0.19989 0.577032 0.062426
462.1821
526.0534
571.6216
655.3676
707.8461
786.2035
0.19989 0.577032 0.124852
432.4031
529.0511
549.3032
671.5141
736.2861
793.277
0.19989 0.577032 0.187278
409.6595
485.5674
575.6881
669.7039
767.2651
803.7706
0.19989 0.577032 0.249704
402.6203
445.5065
604.0911
654.5464
791.979
810.0157
0.19989 0.577032 -0.312131
415.4547
415.4547
631.4796
631.4796
806.5665
806.5665
0.299835 0.519329 0.0
504.3644
577.0385
581.1422
639.8214
676.6891
776.9633
0.299835 0.519329 0.062426
487.1236
549.3925
593.3773
657.152
695.3838
773.9384
0.299835 0.519329 0.124852
453.9066
508.1279
609.0831
688.5809
729.1127
767.2193
0.299835 0.519329 0.187278
424.2841
466.6574
631.0575
707.3414
758.0745
765.5224
0.299835 0.519329 0.249704
408.0699
431.9144
656.6517
701.3012
774.4183
775.7043
0.299835 0.519329 -0.312131
410.6451
410.6451
681.5939
681.5939
780.5557
780.5557
P	=	6999.96	V	=	74.42339	E	=	-654.61711431
0.0 0.0 0.0
-0.0
0.0
0.0
452.3423
452.3423
913.4064
0.0 0.0 0.062412
68.989
68.989
162.4322
447.0463
447.0463
903.7361
0.0 0.0 0.124823
135.4067
135.4067
317.9604
430.5632
430.5632
875.4775
0.0 0.0 0.187235
198.1232
198.1232
402.0015
402.0015
460.0704
829.9601
0.0 0.0 0.249646
257.2695
257.2695
361.8431
361.8431
583.5888
767.3215
0.0 0.0 -0.312058
312.5325
312.5325
312.5325
312.5325
685.8949
685.8949
0.0 0.115421 0.0
128.0907
137.0913
291.2939
473.7879
512.9957
896.5662
0.0 0.115421 0.062412
154.265
161.5242
322.5573
468.8323
507.3787
888.3258
0.0 0.115421 0.124823
195.0763
217.8541
405.4618
453.4985
490.1793
864.1112
0.0 0.115421 0.187235
244.7308
271.649
427.144
460.5931
510.0663
824.7329
0.0 0.115421 0.249646
296.0114
323.5819
390.3723
421.0171
611.2492
770.0737
0.0 0.115421 -0.312058
345.5676
345.5676
374.0682
374.0682
699.0306
699.0306
0.0 0.230842 0.0
246.26
252.0703
521.0985
528.1693
637.6846
849.0656
0.0 0.230842 0.062412
259.9228
262.7001
516.7347
543.2731
629.4439
846.4857
0.0 0.230842 0.124823
290.859
295.8445
503.4209
579.0207
609.5899
837.6059
0.0 0.230842 0.187235
329.0554
344.5923
480.943
560.4409
643.4681
819.8473
0.0 0.230842 0.249646
370.9807
399.3845
449.9585
511.693
699.2564
790.9073
0.0 0.230842 -0.312058
412.3745
412.3745
456.3046
456.3046
750.1257
750.1257
0.0 0.346263 0.0
330.0326
348.0529
566.4587
678.5352
752.8493
780.3369
0.0 0.346263 0.062412
338.6217
351.8686
562.3984
683.4028
727.7357
804.0888
0.0 0.346263 0.124823
362.0787
365.2453
550.2013
659.1355
731.7366
828.5123
0.0 0.346263 0.187235
391.7294
395.119
530.0051
606.3685
764.415
840.6895
0.0 0.346263 0.249646
432.2578
432.9176
502.4865
546.6263
797.5777
838.7713
0.0 0.346263 -0.312058
469.1262
469.1262
486.5014
486.5014
823.6099
823.6099
0.0 0.461684 0.0
369.734
428.6974
595.4242
708.2757
752.1599
822.5327
0.0 0.461684 0.062412
377.4188
426.5591
591.344
688.4057
766.4511
834.6949
0.0 0.461684 0.124823
398.7706
424.0297
579.2075
647.857
795.3754
857.7658
0.0 0.461684 0.187235
429.5844
429.7284
559.3798
597.9199
827.6305
875.6213
0.0 0.461684 0.249646
451.5309
464.9211
532.6368
543.2945
855.4956
881.5039
0.0 0.461684 -0.312058
491.3545
491.3545
500.3882
500.3882
874.3215
874.3215
0.0 -0.577106 0.0
380.8563
466.3842
605.0311
670.9488
773.5392
843.5942
0.0 -0.577106 0.062412
388.2592
461.1732
600.8879
659.3805
785.0113
852.9673
0.0 -0.577106 0.124823
408.9698
450.9935
588.5992
629.0677
812.9308
872.89
0.0 -0.577106 0.187235
439.1685
447.0652
568.6072
586.3815
845.1087
890.0586
0.0 -0.577106 0.249646
459.4038
474.1367
537.4334
541.7497
872.516
896.6268
0.0 -0.577106 -0.312058
491.4806
491.4806
509.4764
509.4764
890.4715
890.4715
0.099958 0.173132 0.0
216.1202
243.3131
444.036
536.7153
592.9939
864.3463
0.099958 0.173132 0.062412
231.3377
254.0635
459.6845
536.2649
585.7836
859.4991
0.099958 0.173132 0.124823
269.6138
282.3751
484.0201
549.8851
564.3023
844.6863
0.099958 0.173132 0.187235
318.5033
320.3972
475.7013
529.7112
603.3601
819.0349
0.099958 0.173132 0.249646
361.1581
369.1342
450.1701
485.4935
669.5924
781.3167
0.099958 0.173132 -0.312058
393.9934
393.9934
442.2671
442.2671
730.9552
730.9552
0.099958 0.288553 0.0
314.7376
343.9715
537.1737
654.0835
699.0821
805.8015
0.099958 0.288553 0.062412
316.7866
353.5585
541.4659
655.0698
688.647
812.2958
0.099958 0.288553 0.124823
328.8711
377.4599
544.6989
634.8547
692.1766
822.1863
0.099958 0.288553 0.187235
356.1543
408.8143
534.9712
589.9861
723.0486
824.1849
0.099958 0.288553 0.249646
396.4243
439.1195
513.2609
541.9929
759.6188
814.0166
0.099958 0.288553 -0.312058
437.7018
437.7018
507.7625
507.7625
791.6569
791.6569
0.099958 0.403974 0.0
402.2233
403.8747
593.9266
726.5344
733.4073
790.9984
0.099958 0.403974 0.062412
391.1619
419.4331
593.183
696.4041
750.702
807.1223
0.099958 0.403974 0.124823
385.4125
442.1122
584.6165
655.8242
773.4724
833.103
0.099958 0.403974 0.187235
391.8594
469.4946
560.0573
617.2548
801.79
850.963
0.099958 0.403974 0.249646
415.14
485.0405
534.2363
583.7023
828.5072
855.8498
0.099958 0.403974 -0.312058
452.8862
452.8862
552.4992
552.4992
847.6886
847.6886
0.099958 0.519395 0.0
428.8908
465.8986
621.9166
671.4661
759.1952
833.9299
0.099958 0.519395 0.062412
427.1194
468.2345
611.6565
666.2314
771.6039
841.818
0.099958 0.519395 0.124823
420.5077
481.1822
583.7558
653.0243
799.9989
859.5805
0.099958 0.519395 0.187235
416.8291
504.4831
545.9293
632.1513
831.869
875.7029
0.099958 0.519395 0.249646
427.2356
495.7521
541.4804
604.779
858.8333
882.1576
0.099958 0.519395 -0.312058
455.6445
455.6445
573.3271
573.3271
876.3386
876.3386
0.199915 0.346263 0.0
392.5612
453.1318
581.5486
727.6309
742.3065
759.9973
0.199915 0.346263 0.062412
386.3945
458.947
591.2721
686.5681
762.1929
777.5983
0.199915 0.346263 0.124823
377.7203
474.1351
607.6943
636.5637
771.0679
809.793
0.199915 0.346263 0.187235
380.9996
489.7241
590.4521
612.9079
788.7415
829.2827
0.199915 0.346263 0.249646
402.7928
479.9316
571.8077
603.4506
810.1188
834.6932
0.199915 0.346263 -0.312058
440.4883
440.4883
585.5403
585.5403
827.2477
827.2477
0.199915 0.461684 0.0
465.119
518.2044
636.3221
672.2975
738.3787
811.5114
0.199915 0.461684 0.062412
451.5203
525.6468
630.9329
664.0605
758.535
813.9145
0.199915 0.461684 0.124823
427.978
535.0394
601.9781
673.5251
787.8699
823.8543
0.199915 0.461684 0.187235
412.754
517.1799
596.8015
676.1699
812.2049
838.8902
0.199915 0.461684 0.249646
415.3139
476.2801
618.0999
664.5203
832.5548
847.7824
0.199915 0.461684 -0.312058
438.2533
438.2533
643.3633
643.3633
845.4877
845.4877
0.199915 0.577106 0.0
505.8646
536.6102
630.821
666.603
733.1379
827.6322
0.199915 0.577106 0.062412
485.0196
553.0003
600.7233
688.5647
745.7582
829.6012
0.199915 0.577106 0.124823
454.2559
555.9281
577.5694
705.8106
775.4557
837.0794
0.199915 0.577106 0.187235
430.8659
510.4403
605.2336
703.9169
808.1442
848.0729
0.199915 0.577106 0.249646
423.7226
468.6006
634.9654
687.9279
834.5073
854.3937
0.199915 0.577106 -0.312058
437.1998
437.1998
663.679
663.679
850.333
850.333
0.299873 0.519395 0.0
529.3821
606.8128
611.0484
672.5718
711.7537
819.1429
0.299873 0.519395 0.062412
511.4548
577.3059
624.3053
690.8065
731.606
815.8791
0.299873 0.519395 0.124823
476.9454
534.0186
640.6801
723.8995
767.5091
808.667
0.299873 0.519395 0.187235
446.2373
490.7437
663.5889
743.6354
798.3423
806.7747
0.299873 0.519395 0.249646
429.4976
454.5231
690.4315
737.3835
815.9356
817.0881
0.299873 0.519395 -0.312058
432.2972
432.2972
716.6741
716.6741
822.2833
822.2833
P	=	8000.16	V	=	71.73167	E	=	-654.48008103
0.0 0.0 0.0
-0.0
-0.0
-0.0
470.8088
470.8088
959.3409
0.0 0.0 0.062394
71.6297
71.6297
169.8764
465.3685
465.3685
948.9861
0.0 0.0 0.124789
140.6713
140.6713
332.5575
448.3741
448.3741
918.7828
0.0 0.0 0.187183
206.0042
206.0042
418.777
418.777
481.2741
870.313
0.0 0.0 0.249578
267.7523
267.7523
376.9771
376.9771
610.6823
803.9482
0.0 0.0 -0.311972
325.5007
325.5007
325.5007
325.5007
718.1137
718.1137
0.0 0.115439 0.0
133.7339
142.334
304.5818
493.2788
533.9376
941.3134
0.0 0.115439 0.062394
160.1442
168.3652
337.4337
488.1481
528.1639
932.5594
0.0 0.115439 0.124789
202.5464
226.6387
424.3991
472.2427
510.4228
906.824
0.0 0.115439 0.187183
254.2794
282.4307
444.8293
479.6643
533.9897
864.9919
0.0 0.115439 0.249578
307.8398
336.535
406.4773
438.3946
639.9691
807.0829
0.0 0.115439 -0.311972
359.6567
359.6567
389.3032
389.3032
732.1523
732.1523
0.0 0.230878 0.0
256.6862
262.1837
542.9349
552.5577
664.6451
890.5744
0.0 0.230878 0.062394
271.1031
273.1751
538.3471
568.317
656.1663
887.9469
0.0 0.230878 0.124789
302.36
308.6158
524.3692
604.8588
636.5551
878.6905
0.0 0.230878 0.187183
342.0839
359.1234
500.8119
584.0379
673.738
859.8398
0.0 0.230878 0.249578
385.8174
415.948
468.3821
533.1757
732.243
829.01
0.0 0.230878 -0.311972
429.074
429.074
475.2818
475.2818
785.793
785.793
0.0 0.346317 0.0
344.2037
362.258
590.7066
710.1066
787.246
817.372
0.0 0.346317 0.062394
353.0817
366.6153
586.4073
714.5257
761.7931
842.2084
0.0 0.346317 0.124789
377.3589
381.1755
573.5255
688.4458
766.5577
868.1366
0.0 0.346317 0.187183
408.9932
411.6231
552.2813
633.3925
800.5303
880.9917
0.0 0.346317 0.249578
450.2201
451.8784
523.4522
570.8499
835.2018
878.7751
0.0 0.346317 -0.311972
488.619
488.619
507.8526
507.8526
862.6095
862.6095
0.0 0.461756 0.0
386.6736
446.0221
621.3363
740.7892
787.9579
862.4437
0.0 0.461756 0.062394
394.635
444.2902
617.0331
719.9786
802.8225
875.2101
0.0 0.461756 0.124789
416.737
442.5922
604.2537
677.5424
832.8495
899.4946
0.0 0.461756 0.187183
448.6069
449.1312
583.4404
625.2852
866.5051
918.1728
0.0 0.461756 0.249578
472.0357
485.1642
555.4872
568.0663
895.8714
924.0228
0.0 0.461756 -0.311972
513.6714
513.6714
521.9318
521.9318
916.0164
916.0164
0.0 -0.577195 0.0
398.7976
485.3419
631.5238
701.171
810.9031
885.3715
0.0 -0.577195 0.062394
406.479
480.4803
627.1693
689.1703
822.551
895.206
0.0 -0.577195 0.124789
427.9259
470.932
614.2653
657.6444
851.1893
916.0854
0.0 -0.577195 0.187183
459.1236
467.5276
593.3198
613.1322
884.6855
933.8975
0.0 -0.577195 0.249578
480.5797
495.2214
562.0134
565.2912
913.7074
940.301
0.0 -0.577195 -0.311972
514.0361
514.0361
531.7729
531.7729
933.1634
933.1634
0.099973 0.173158 0.0
225.3872
252.8939
463.621
560.2335
617.4662
906.8883
0.099973 0.173158 0.062394
241.3132
264.02
479.7327
560.0541
610.0283
901.8386
0.099973 0.173158 0.124789
281.053
293.3798
504.1515
575.4717
587.8142
886.2752
0.099973 0.173158 0.187183
331.5906
332.9251
495.1842
551.8894
631.8466
859.089
0.099973 0.173158 0.249578
375.4198
384.0508
468.58
505.7681
701.2685
819.037
0.099973 0.173158 -0.311972
409.6872
409.6872
460.5857
460.5857
765.7864
765.7864
0.099973 0.288597 0.0
327.7745
358.022
559.8469
684.2371
730.1153
844.5213
0.099973 0.288597 0.062394
330.1677
367.9727
564.1264
684.6576
720.0604
851.4039
0.099973 0.288597 0.124789
343.0544
392.7849
567.2161
662.4684
725.2043
861.9119
0.099973 0.288597 0.187183
371.3784
425.3208
557.0578
615.7313
757.4633
863.938
0.099973 0.288597 0.249578
413.0447
456.7579
534.8121
565.3875
795.6336
852.9763
0.099973 0.288597 -0.311972
455.6305
455.6305
529.3414
529.3414
829.2595
829.2595
0.099973 0.404036 0.0
418.614
421.3144
619.2982
760.4082
767.6144
828.7172
0.099973 0.404036 0.062394
407.6046
437.3579
618.397
728.2917
786.4791
845.5251
0.099973 0.404036 0.124789
402.0736
461.0825
609.4386
685.6021
810.3576
872.9244
0.099973 0.404036 0.187183
409.0745
489.4484
584.359
644.7326
839.8288
891.7322
0.099973 0.404036 0.249578
433.3355
505.5243
557.8984
609.1019
867.7372
896.713
0.099973 0.404036 -0.311972
472.5487
472.5487
576.4519
576.4519
887.9413
887.9413
0.099973 0.519475 0.0
448.2533
485.0348
648.8265
701.9211
795.4611
874.8414
0.099973 0.519475 0.062394
446.0059
488.3199
638.1592
696.4272
808.181
883.1015
0.099973 0.519475 0.124789
439.0239
502.6871
609.2701
682.4038
837.4897
901.6868
0.099973 0.519475 0.187183
435.5187
526.9668
570.1649
660.3043
870.7305
918.4139
0.099973 0.519475 0.249578
446.4951
517.7184
565.6715
631.5198
899.2349
924.7705
0.099973 0.519475 -0.311972
476.0636
476.0636
598.6842
598.6842
918.1021
918.1021
0.199946 0.346317 0.0
408.6984
471.9354
606.3118
759.9746
777.19
796.9456
0.199946 0.346317 0.062394
402.599
477.9203
616.1947
717.585
799.2785
813.8427
0.199946 0.346317 0.124789
394.0532
493.5473
632.9225
665.492
808.575
847.9746
0.199946 0.346317 0.187183
397.6321
509.5825
617.4921
638.2733
826.8539
868.6222
0.199946 0.346317 0.249578
420.2557
499.9276
597.2128
628.6709
848.8783
874.3247
0.199946 0.346317 -0.311972
459.3839
459.3839
610.523
610.523
866.5791
866.5791
0.199946 0.461756 0.0
484.5449
540.5713
663.8531
703.1281
772.4069
850.8714
0.199946 0.461756 0.062394
470.6641
548.218
658.5934
693.9517
793.6909
853.3275
0.199946 0.461756 0.124789
446.5923
557.7272
629.2913
702.7942
824.8177
863.4817
0.199946 0.461756 0.187183
431.0487
539.4891
623.6311
705.3411
850.5253
878.9132
0.199946 0.461756 0.249578
433.8563
497.3064
645.3654
693.2993
871.8395
888.0054
0.199946 0.461756 -0.311972
457.789
457.789
671.4408
671.4408
885.4426
885.4426
0.199946 0.577195 0.0
527.3584
560.3338
659.2804
695.4457
767.5625
867.623
0.199946 0.577195 0.062394
505.8555
577.4995
627.345
718.9111
780.5055
869.6598
0.199946 0.577195 0.124789
474.1561
580.4572
603.2796
737.1016
811.218
877.403
0.199946 0.577195 0.187183
450.1344
533.0835
632.154
735.1303
845.3821
888.7119
0.199946 0.577195 0.249578
442.8915
489.6033
663.1514
718.4105
873.2513
894.9803
0.199946 0.577195 -0.311972
456.9678
456.9678
693.0984
693.0984
890.2685
890.2685
0.299919 0.519475 0.0
552.327
634.0929
638.1952
702.5763
743.9264
858.0263
0.299919 0.519475 0.062394
533.7401
602.8285
652.398
721.5649
764.7741
854.5136
0.299919 0.519475 0.124789
497.9567
557.6159
669.3654
756.0551
802.5537
846.7799
0.299919 0.519475 0.187183
466.18
512.6194
693.1692
776.6598
835.0297
844.5929
0.299919 0.519475 0.249578
448.9481
475.0412
721.2228
770.2914
853.8657
854.7935
0.299919 0.519475 -0.311972
451.9578
451.9578
748.6936
748.6936
860.3398
860.3398
P	=	9000.24	V	=	69.38501	E	=	-654.34464081
0.0 0.0 0.0
0.0
0.0
0.0
487.965
487.965
1002.0403
0.0 0.0 0.062379
74.0481
74.0481
176.9314
482.3963
482.3963
991.039
0.0 0.0 0.124757
145.5097
145.5097
346.3505
464.9399
464.9399
959.0097
0.0 0.0 0.187136
213.2807
213.2807
434.3914
434.3914
501.2246
907.7976
0.0 0.0 0.249514
277.472
277.472
391.0649
391.0649
636.056
838.0131
0.0 0.0 -0.311893
337.5585
337.5585
337.5585
337.5585
748.1633
748.1633
0.0 0.115452 0.0
139.0337
147.1253
316.7697
511.3245
553.2581
982.9117
0.0 0.115452 0.062379
165.5393
174.7721
351.1257
506.0341
547.3424
973.6636
0.0 0.115452 0.124757
209.4319
234.7798
441.9656
489.6017
529.1032
946.4879
0.0 0.115452 0.187136
263.0901
292.3482
461.2021
497.2696
556.2799
902.3814
0.0 0.115452 0.249514
318.7562
348.4314
421.3719
454.4105
666.771
841.5042
0.0 0.115452 -0.311893
372.6702
372.6702
403.3165
403.3165
763.0239
763.0239
0.0 0.230904 0.0
266.4747
271.4184
563.0741
574.9603
689.3947
929.1706
0.0 0.230904 0.062379
281.4907
282.7677
558.2795
591.3397
680.692
926.4644
0.0 0.230904 0.124757
312.9345
320.3383
543.6815
628.6074
661.3407
916.8029
0.0 0.230904 0.187136
354.0664
372.4396
519.1047
605.7173
701.6443
896.9296
0.0 0.230904 0.249514
399.4387
431.1567
485.3096
552.8965
762.7856
864.3743
0.0 0.230904 -0.311893
444.3963
444.3963
492.7126
492.7126
818.8948
818.8948
0.0 0.346356 0.0
357.2102
375.5925
613.0481
739.2044
818.8734
851.8196
0.0 0.346356 0.062379
366.3701
380.35
608.528
743.2285
793.1505
877.5326
0.0 0.346356 0.124757
391.4262
395.8384
595.0086
715.4787
798.5731
904.7841
0.0 0.346356 0.187136
424.8452
426.8154
572.7794
658.2798
833.7856
918.2427
0.0 0.346356 0.249514
466.7306
469.3597
542.7194
593.1885
869.9145
915.754
0.0 0.346356 -0.311893
506.5216
506.5216
527.5753
527.5753
898.6463
898.6463
0.0 0.461808 0.0
402.3587
462.297
645.1949
771.0288
821.1381
899.1821
0.0 0.461808 0.062379
410.5813
460.8864
640.6812
749.2749
836.4789
912.5388
0.0 0.461808 0.124757
433.3835
459.8485
627.2999
704.9779
867.4357
937.9732
0.0 0.461808 0.187136
466.2198
467.0993
605.5766
650.5243
902.3496
957.4329
0.0 0.461808 0.249514
491.0211
503.8734
576.5244
590.9383
933.1253
963.2788
0.0 0.461808 -0.311893
534.3228
534.3228
541.7991
541.7991
954.5164
954.5164
0.0 -0.57726 0.0
415.4827
503.1703
655.9046
729.2608
845.6194
923.8453
0.0 -0.57726 0.062379
423.4241
498.6051
651.3471
716.7952
857.3705
934.1187
0.0 -0.57726 0.124757
445.5537
489.5722
637.863
684.0324
886.5598
955.9033
0.0 -0.57726 0.187136
477.6634
486.5776
616.046
637.7764
921.2129
974.3401
0.0 -0.57726 0.249514
500.2338
514.7676
584.6828
586.9791
951.7342
980.6276
0.0 -0.57726 -0.311893
534.9056
534.9056
552.3766
552.3766
972.5957
972.5957
0.099984 0.173178 0.0
234.0907
261.5494
481.6732
581.863
639.9732
946.4433
0.099984 0.173178 0.062379
250.595
273.0427
498.2392
581.9147
632.3364
941.1773
0.099984 0.173178 0.124757
291.5921
303.406
522.768
598.9729
609.463
924.8721
0.099984 0.173178 0.187136
343.6263
344.3737
513.1129
572.308
658.1549
896.2618
0.099984 0.173178 0.249514
388.4667
397.7729
485.4548
524.4163
730.6561
854.0836
0.099984 0.173178 -0.311893
424.0811
424.0811
477.3958
477.3958
798.1644
798.1644
0.099984 0.28863 0.0
340.0233
370.7082
580.7602
711.9301
758.7042
880.541
0.099984 0.28863 0.062379
342.6213
381.0181
585.0231
711.8447
749.0069
887.7307
0.099984 0.28863 0.124757
356.1032
406.6905
587.946
687.963
755.5394
898.7396
0.099984 0.28863 0.187136
385.3598
440.3332
577.35
639.4719
789.143
900.7641
0.099984 0.28863 0.249514
428.3413
472.8387
554.61
586.9354
828.8751
889.0593
0.099984 0.28863 -0.311893
472.0817
472.0817
549.1778
549.1778
864.0475
864.0475
0.099984 0.404082 0.0
434.0254
437.2213
642.6463
791.7374
799.4613
863.4238
0.099984 0.404082 0.062379
422.9022
453.814
641.6015
757.8799
819.5387
880.955
0.099984 0.404082 0.124757
417.525
478.4394
632.3063
713.13
844.3748
909.709
0.099984 0.404082 0.187136
424.9959
507.6895
606.8033
670.0315
874.8913
929.3916
0.099984 0.404082 0.249514
450.16
524.3011
579.7565
632.437
903.9102
934.447
0.099984 0.404082 -0.311893
490.7025
490.7025
598.4706
598.4706
925.0873
925.0873
0.099984 0.519534 0.0
466.0861
503.0481
673.5545
730.2811
829.1376
912.4815
0.099984 0.519534 0.062379
463.4899
507.1035
662.571
724.4322
842.1067
921.1127
0.099984 0.519534 0.124757
456.2814
522.6146
632.8451
709.48
872.1744
940.4999
0.099984 0.519534 0.187136
452.9256
547.7085
592.5996
686.162
906.6106
957.8077
0.099984 0.519534 0.249514
464.3834
538.0127
587.9897
656.0695
936.5069
964.0808
0.099984 0.519534 -0.311893
494.978
494.978
622.0004
622.0004
956.6279
956.6279
0.199969 0.346356 0.0
423.8904
488.8137
629.1871
789.8965
809.6906
830.8971
0.199969 0.346356 0.062379
417.7781
494.9697
639.1966
746.3679
833.3648
847.5089
0.199969 0.346356 0.124757
409.2267
511.0433
656.1279
692.358
843.0699
883.3931
0.199969 0.346356 0.187136
413.0181
527.5746
642.5711
661.5152
861.928
905.0647
0.199969 0.346356 0.249514
436.3952
518.2352
620.6171
651.7424
884.5786
910.9686
0.199969 0.346356 -0.311893
476.8132
476.8132
633.4058
633.4058
902.867
902.867
0.199969 0.461808 0.0
502.8585
560.8865
689.1895
731.9232
803.9455
887.0291
0.199969 0.461808 0.062379
488.6603
568.7555
684.1783
721.7173
826.2986
889.5713
0.199969 0.461808 0.124757
464.0381
578.4368
654.677
729.7578
859.0225
900.0234
0.199969 0.461808 0.187136
448.135
560.0532
648.3702
732.0882
885.8942
915.8651
0.199969 0.461808 0.249514
451.0982
516.7713
670.3492
719.6144
908.0224
925.0916
0.199969 0.461808 -0.311893
475.8993
475.8993
697.1047
697.1047
922.23
922.23
0.199969 0.57726 0.0
547.6289
582.06
685.8946
721.9003
799.4984
904.3338
0.199969 0.57726 0.062379
525.4165
600.0609
652.1197
746.8886
812.7467
906.4689
0.199969 0.57726 0.124757
492.8392
603.2913
626.9813
765.9028
844.3686
914.5289
0.199969 0.57726 0.187136
468.1904
554.1607
656.9157
763.7574
879.8007
926.1507
0.199969 0.57726 0.249514
460.7639
509.1197
688.973
746.2825
908.9462
932.3332
0.199969 0.57726 -0.311893
475.3298
475.3298
719.9806
719.9806
927.0033
927.0033
0.299953 0.519534 0.0
573.9559
659.692
663.039
730.2229
773.6138
893.6617
0.299953 0.519534 0.062379
554.7184
626.6139
678.2973
749.9731
795.4621
889.94
0.299953 0.519534 0.124757
517.7291
579.662
695.7924
785.7629
835.0246
881.7653
0.299953 0.519534 0.187136
484.9114
533.0689
720.335
806.9977
868.9467
879.3548
0.299953 0.519534 0.249514
467.1152
494.1658
749.3582
800.3309
888.7238
889.5154
0.299953 0.519534 -0.311893
470.2504
470.2504
777.8685
777.8685
895.3
895.3
P	=	10000.17	V	=	67.30941	E	=	-654.21071981
0.0 0.0 0.0
0.0
0.0
0.0
503.7718
503.7718
1041.7926
0.0 0.0 0.062361
76.3726
76.3726
183.5371
498.1067
498.1067
1030.2331
0.0 0.0 0.124722
150.1145
150.1145
359.2645
480.2712
480.2712
996.6039
0.0 0.0 0.187083
220.1289
220.1289
448.8814
448.8814
519.9112
942.928
0.0 0.0 0.249444
286.5469
286.5469
404.1562
404.1562
659.8456
869.9878
0.0 0.0 -0.311805
348.7762
348.7762
348.7762
348.7762
776.366
776.366
0.0 0.115465 0.0
144.0669
151.6533
328.0478
527.9768
571.0069
1021.6702
0.0 0.115465 0.062361
170.6216
180.8673
363.849
522.5432
564.9727
1012.0073
0.0 0.115465 0.124722
215.8847
242.4847
458.3912
505.6362
546.3048
983.5908
0.0 0.115465 0.187083
271.3128
301.6515
476.3429
513.5071
577.1776
937.449
0.0 0.115465 0.249444
328.9116
359.5023
435.1667
469.2049
691.9201
873.8275
0.0 0.115465 -0.311805
384.7464
384.7464
416.2927
416.2927
792.0097
792.0097
0.0 0.23093 0.0
275.747
280.1488
581.6895
595.7652
712.148
965.1942
0.0 0.23093 0.062361
291.3953
291.7965
576.6794
612.7334
703.255
962.4463
0.0 0.23093 0.124722
322.8162
331.5689
561.4634
650.5294
684.3851
952.4654
0.0 0.23093 0.187083
365.2227
385.1114
535.933
625.6824
727.7522
931.6668
0.0 0.23093 0.249444
412.0955
445.4616
500.9185
571.1382
791.3769
897.4916
0.0 0.23093 -0.311805
458.5852
458.5852
508.9455
508.9455
849.8833
849.8833
0.0 0.346396 0.0
369.5092
388.1708
633.6839
766.2203
848.2692
884.0076
0.0 0.346396 0.062361
378.9045
393.3483
628.9284
769.7961
822.4589
910.4606
0.0 0.346396 0.124722
404.6346
409.7856
614.7629
740.5054
828.5422
938.9081
0.0 0.346396 0.187083
439.9286
441.03
591.6131
681.3965
864.8814
952.9173
0.0 0.346396 0.249444
482.1245
485.9056
560.4813
614.0347
902.3282
950.1885
0.0 0.346396 -0.311805
523.1243
523.1243
546.1023
546.1023
932.2429
932.2429
0.0 0.461861 0.0
417.1875
477.5909
667.188
799.2721
851.9864
933.6299
0.0 0.461861 0.062361
425.6461
476.4619
662.4636
776.6063
867.7989
947.4938
0.0 0.461861 0.124722
449.0804
476.0255
648.5013
730.553
899.6247
973.9256
0.0 0.461861 0.187083
482.7789
483.9746
625.9526
674.078
935.703
994.057
0.0 0.461861 0.249444
508.8952
521.3807
595.9631
612.3603
967.8003
999.8654
0.0 0.461861 -0.311805
553.745
553.745
560.272
560.272
990.374
990.374
0.0 -0.577326 0.0
431.2541
519.9058
678.3563
755.472
877.9399
960.023
0.0 -0.577326 0.062361
439.4399
515.5611
673.6052
742.5583
889.7664
970.6728
0.0 -0.577326 0.124722
462.201
506.9276
659.5822
708.6303
919.4217
993.2245
0.0 -0.577326 0.187083
495.125
504.3296
636.9905
660.7862
955.1303
1012.1619
0.0 -0.577326 0.249444
518.6477
533.0841
605.9289
607.0452
987.0836
1018.2676
0.0 -0.577326 -0.311805
554.513
554.513
571.5571
571.5571
1009.3265
1009.3265
0.099996 0.173198 0.0
242.3459
269.6818
498.4087
601.8877
660.6247
983.3452
0.099996 0.173198 0.062361
259.4663
281.4856
515.3819
602.1783
652.8101
977.917
0.099996 0.173198 0.124722
301.7031
312.7281
539.9337
620.8862
629.351
961.0004
0.099996 0.173198 0.187083
354.9883
355.0662
529.6086
591.1069
682.7872
931.114
0.099996 0.173198 0.249444
400.5507
410.6378
501.0225
541.6488
758.2002
886.9531
0.099996 0.173198 -0.311805
437.4037
437.4037
492.9995
492.9995
828.5206
828.5206
0.099996 0.288663 0.0
351.6112
382.6108
600.1013
737.5658
785.1975
914.1954
0.099996 0.288663 0.062361
354.4724
393.2272
604.2965
736.9322
775.9715
921.6587
0.099996 0.288663 0.124722
368.6045
419.6574
606.9747
711.4816
783.9218
933.1157
0.099996 0.288663 0.187083
398.7107
454.3028
595.9636
661.4389
818.8144
935.1248
0.099996 0.288663 0.249444
442.7759
487.7745
572.8763
606.9563
859.9762
922.7289
0.099996 0.288663 -0.311805
487.3958
487.3958
567.6333
567.6333
896.5411
896.5411
0.099996 0.404128 0.0
448.5537
452.1554
664.1784
820.7894
829.2338
895.8642
0.099996 0.404128 0.062361
437.3401
469.2508
662.9659
785.3987
850.3916
914.0157
0.099996 0.404128 0.124722
432.1461
494.692
653.3159
738.7091
876.1617
943.9688
0.099996 0.404128 0.187083
440.0714
524.7494
627.4698
693.5135
907.6501
964.4385
0.099996 0.404128 0.249444
466.0354
541.8227
600.042
654.0918
937.6677
969.5736
0.099996 0.404128 -0.311805
507.7094
507.7094
618.9463
618.9463
959.7042
959.7042
0.099996 0.519593 0.0
482.8426
519.9896
696.3149
756.7796
860.4688
947.7942
0.099996 0.519593 0.062361
479.9362
524.7096
685.0824
750.5122
873.661
956.7562
0.099996 0.519593 0.124722
472.5011
541.2416
654.641
734.5813
904.4113
976.8383
0.099996 0.519593 0.187083
469.264
567.097
613.3996
710.1052
939.9498
994.6199
0.099996 0.519593 0.249444
481.184
556.9504
608.7944
678.8392
971.1695
1000.7547
0.099996 0.519593 -0.311805
512.7098
512.7098
643.69
643.69
992.5122
992.5122
0.199992 0.346396 0.0
438.2475
504.5435
650.3277
817.5136
840.0911
862.6227
0.199992 0.346396 0.062361
432.1648
510.8437
660.3913
773.0755
865.2575
878.8243
0.199992 0.346396 0.124722
423.6739
527.306
677.4021
717.302
875.4263
916.286
0.199992 0.346396 0.187083
427.6694
544.2834
665.8684
682.8048
894.8468
938.9066
0.199992 0.346396 0.249444
451.6631
535.246
642.3828
672.9722
918.0058
945.0507
0.199992 0.346396 -0.311805
493.1364
493.1364
654.5958
654.5958
936.7213
936.7213
0.199992 0.461861 0.0
520.1343
579.8046
712.6017
758.8841
833.195
920.8027
0.199992 0.461861 0.062361
505.6241
587.8827
707.8629
747.5679
856.5665
923.4547
0.199992 0.461861 0.124722
480.4701
597.7305
678.2368
754.6316
890.8231
934.1849
0.199992 0.461861 0.187083
464.2248
579.1796
671.3466
756.7185
918.8625
950.3263
0.199992 0.461861 0.249444
467.3142
534.9081
693.5374
743.9058
941.7627
959.6384
0.199992 0.461861 -0.311805
492.8595
492.8595
720.8705
720.8705
956.5103
956.5103
0.199992 0.577326 0.0
566.7288
602.3173
710.8264
746.3103
829.2164
938.5921
0.199992 0.577326 0.062361
543.8069
621.0979
675.2295
772.7547
842.7392
940.8488
0.199992 0.577326 0.124722
510.3564
624.5444
649.0513
792.4809
875.1795
949.233
0.199992 0.577326 0.187083
485.096
573.7637
679.9451
790.1941
911.7765
961.1142
0.199992 0.577326 0.249444
477.5031
527.3129
712.954
772.0735
942.1326
967.163
0.199992 0.577326 -0.311805
492.5068
492.5068
744.9039
744.9039
961.2048
961.2048
0.299987 0.519593 0.0
594.3355
683.7263
686.092
755.947
801.1971
926.7306
0.299987 0.519593 0.062361
574.4439
648.858
702.3685
776.3875
823.982
922.8514
0.299987 0.519593 0.124722
536.2555
600.2276
720.3134
813.3167
865.1779
914.355
0.299987 0.519593 0.187083
502.428
552.1051
745.5176
835.0783
900.4351
911.7987
0.299987 0.519593 0.249444
484.1014
511.9845
775.4221
828.1468
921.2236
921.7834
0.299987 0.519593 -0.311805
487.3363
487.3363
804.8908
804.8908
927.8408
927.8408
P	=	11000.02	V	=	65.45246	E	=	-654.07826955
0.0 0.0 0.0
-0.0
0.0
0.0
518.6352
518.6352
1079.2283
0.0 0.0 0.062343
78.3614
78.3614
189.7667
512.8671
512.8671
1067.1482
0.0 0.0 0.124687
154.1794
154.1794
371.4559
494.6616
494.6616
1032.0294
0.0 0.0 0.18703
226.3881
226.3881
462.5017
462.5017
537.5712
976.062
0.0 0.0 0.249373
295.043
295.043
416.5069
416.5069
682.3397
900.1811
0.0 0.0 -0.311717
359.3723
359.3723
359.3723
359.3723
803.0243
803.0243
0.0 0.115477 0.0
148.8056
155.8482
338.5895
543.5999
587.6274
1058.1982
0.0 0.115477 0.062343
175.2791
186.5718
375.7322
538.0219
581.4751
1048.1461
0.0 0.115477 0.124687
221.7707
249.6024
473.8006
520.6571
562.4098
1018.5695
0.0 0.115477 0.18703
278.8997
310.2722
490.5381
528.7544
596.8797
970.5326
0.0 0.115477 0.249373
338.4041
369.8948
448.1301
483.1667
715.6863
904.3554
0.0 0.115477 -0.311717
396.1008
396.1008
428.5607
428.5607
819.4095
819.4095
0.0 0.230954 0.0
284.501
288.3152
599.1452
615.2814
733.4662
999.2257
0.0 0.230954 0.062343
300.2313
300.7449
593.9284
632.7705
724.4091
996.4211
0.0 0.230954 0.124687
332.0382
342.1574
578.1272
670.9963
706.0919
986.1066
0.0 0.230954 0.18703
375.6521
397.0813
551.7073
644.5224
752.2837
964.4227
0.0 0.230954 0.249373
423.96
459.0515
515.5629
588.4616
818.3268
928.7351
0.0 0.230954 -0.311717
471.9032
471.9032
524.4119
524.4119
879.1296
879.1296
0.0 0.34643 0.0
381.1673
400.0998
653.1382
791.7031
876.0195
914.5319
0.0 0.34643 0.062343
390.7825
405.6823
648.1615
794.8516
850.1789
941.5922
0.0 0.34643 0.124687
417.1445
423.0369
633.391
764.2314
856.7742
971.1006
0.0 0.34643 0.18703
454.2998
454.4866
609.3837
703.3955
894.1606
985.606
0.0 0.34643 0.249373
496.6903
501.7302
577.2568
633.9527
932.879
982.6593
0.0 0.34643 -0.311717
538.8214
538.8214
563.8457
563.8457
963.9301
963.9301
0.0 0.461907 0.0
431.4064
492.161
688.0696
826.1676
881.3257
966.3043
0.0 0.461907 0.062343
440.0841
491.2916
683.1465
802.6553
897.5482
980.6275
0.0 0.461907 0.124687
464.1089
491.4146
668.641
754.9621
930.1229
1007.9648
0.0 0.461907 0.18703
498.6183
500.0369
645.3288
696.5909
967.2377
1028.6965
0.0 0.461907 0.249373
525.9486
538.111
614.4791
632.8559
1000.5537
1034.4425
0.0 0.461907 -0.311717
572.3178
572.3178
577.9004
577.9004
1024.245
1024.245
0.0 -0.577384 0.0
446.4454
535.8772
699.7409
780.4841
908.7908
994.3952
0.0 -0.577384 0.062343
454.8564
531.717
694.8062
767.1615
920.6587
1005.3854
0.0 -0.577384 0.124687
478.2052
523.4172
680.278
732.1569
950.674
1028.6253
0.0 -0.577384 0.18703
511.8959
521.177
656.9728
682.8174
987.2866
1047.9891
0.0 -0.577384 0.249373
536.1578
550.6603
626.229
626.2609
1020.5275
1053.8784
0.0 -0.577384 -0.311717
573.2268
573.2268
589.9345
589.9345
1044.0561
1044.0561
0.100006 0.173215 0.0
250.1318
277.1841
514.0883
620.6626
679.9688
1018.1788
0.100006 0.173215 0.062343
267.8312
289.2653
531.4088
621.1764
671.9912
1012.5881
0.100006 0.173215 0.124687
311.2124
321.3215
555.9698
641.4329
648.0156
995.0785
0.100006 0.173215 0.18703
364.8219
365.8388
545.0335
608.8341
705.9522
963.989
0.100006 0.173215 0.249373
411.8129
422.815
515.6176
558.0037
784.1871
917.9791
0.100006 0.173215 -0.311717
449.8947
449.8947
507.819
507.819
857.1902
857.1902
0.100006 0.288692 0.0
362.5803
393.6758
618.2162
761.6953
810.2063
946.064
0.100006 0.288692 0.062343
365.6972
404.5845
622.3392
760.5271
801.449
953.7408
0.100006 0.288692 0.124687
380.4652
431.7348
624.7927
733.7226
810.6359
965.5501
0.100006 0.288692 0.18703
411.4198
467.3401
613.4288
682.3009
846.7478
967.5135
0.100006 0.288692 0.249373
456.5477
501.758
590.1118
626.0246
889.2986
954.4776
0.100006 0.288692 -0.311717
501.898
501.898
585.1552
585.1552
927.196
927.196
0.100006 0.404169 0.0
462.3712
466.237
684.4708
848.3573
857.5432
926.5951
0.100006 0.404169 0.062343
451.054
483.8255
683.1079
811.5641
879.6382
945.3129
0.100006 0.404169 0.124687
446.0653
510.0194
673.1588
763.0332
906.2214
976.3541
0.100006 0.404169 0.18703
454.475
540.8339
647.0766
715.8251
938.5807
997.5339
0.100006 0.404169 0.249373
481.2512
558.4132
619.3542
674.6262
969.5278
1002.732
0.100006 0.404169 -0.311717
523.9796
523.9796
638.3603
638.3603
992.3778
992.3778
0.100006 0.519646 0.0
498.8041
536.1549
717.9022
782.0611
890.348
981.3124
0.100006 0.519646 0.062343
495.603
541.4776
706.4605
775.3661
903.7219
990.5757
0.100006 0.519646 0.124687
487.9503
558.941
675.3989
758.452
935.04
1011.2793
0.100006 0.519646 0.18703
484.8447
585.5118
633.2736
732.841
971.5306
1029.4593
0.100006 0.519646 0.249373
497.2622
575.0852
628.5694
700.4516
1003.937
1035.4202
0.100006 0.519646 -0.311717
529.7186
529.7186
664.2842
664.2842
1026.4132
1026.4132
0.200012 0.34643 0.0
451.8915
519.1439
670.1667
843.7315
868.982
892.6592
0.200012 0.34643 0.062343
445.839
525.583
680.2677
798.471
895.4385
908.5109
0.200012 0.34643 0.124687
437.4315
542.4228
697.3381
741.0636
906.0116
947.3775
0.200012 0.34643 0.18703
441.6881
559.8645
688.0984
702.7669
925.9356
970.8458
0.200012 0.34643 0.249373
466.3255
551.3004
663.0691
692.919
949.5653
977.21
0.200012 0.34643 -0.311717
508.7519
508.7519
674.5842
674.5842
968.6767
968.6767
0.200012 0.461907 0.0
536.6139
597.556
734.6783
784.5992
861.0673
952.8101
0.200012 0.461907 0.062343
521.7711
605.8373
730.2632
772.1453
885.361
955.5631
0.200012 0.461907 0.124687
496.0958
615.8577
700.6331
778.1057
920.9765
966.5374
0.200012 0.461907 0.18703
479.5889
597.2772
693.119
779.9072
950.0398
982.9124
0.200012 0.461907 0.249373
482.8913
552.2264
715.4292
766.7722
973.6207
992.2591
0.200012 0.461907 -0.311717
509.1578
509.1578
743.2644
743.2644
988.8623
988.8623
0.200012 0.577384 0.0
584.9747
621.4542
734.6464
769.4066
857.5392
971.0404
0.200012 0.577384 0.062343
561.2998
641.0066
697.2366
797.2613
871.3045
973.413
0.200012 0.577384 0.124687
526.9734
644.7742
669.9276
817.59
904.4509
982.0852
0.200012 0.577384 0.18703
501.1812
592.4674
701.7097
815.1242
942.0502
994.158
0.200012 0.577384 0.249373
493.5465
544.7602
735.5919
796.3837
973.4691
1000.0297
0.200012 0.577384 -0.311717
509.0309
509.0309
768.4071
768.4071
993.4646
993.4646
0.300017 0.519646 0.0
613.814
706.6978
707.8353
780.3311
827.4277
957.9699
0.300017 0.519646 0.062343
593.2356
669.9911
725.163
801.4173
851.0861
953.9407
0.300017 0.519646 0.124687
553.8451
619.7374
743.5042
839.3523
893.7513
945.1367
0.300017 0.519646 0.18703
519.113
570.2089
769.2996
861.5179
930.1762
942.4257
0.300017 0.519646 0.249373
500.4113
529.0568
799.985
854.3016
951.8612
952.1975
0.300017 0.519646 -0.311717
503.7963
503.7963
830.3129
830.3129
958.4936
958.4936
P	=	11999.79	V	=	63.77677	E	=	-653.94734923
0.0 0.0 0.0
-0.0
-0.0
0.0
532.5787
532.5787
1114.5749
0.0 0.0 0.062324
80.426
80.426
195.6576
526.7522
526.7522
1102.0283
0.0 0.0 0.124647
158.3217
158.3217
383.0207
508.2885
508.2885
1065.5719
0.0 0.0 0.186971
232.6283
232.6283
475.4951
475.4951
554.3837
1007.5313
0.0 0.0 0.249295
303.3621
303.3621
428.369
428.369
703.8066
928.9476
0.0 0.0 -0.311618
369.6266
369.6266
369.6266
369.6266
828.4717
828.4717
0.0 0.115489 0.0
153.4416
159.8427
348.5267
558.269
603.2317
1092.721
0.0 0.115489 0.062324
179.7694
192.1305
386.9472
552.5837
596.9948
1082.3187
0.0 0.115489 0.124647
227.5128
256.4876
488.4049
534.8565
577.6182
1051.6972
0.0 0.115489 0.186971
286.2891
318.5488
504.0326
543.2088
615.6359
1001.9433
0.0 0.115489 0.249295
347.5849
379.8219
460.5183
496.4422
738.3602
933.42
0.0 0.115489 -0.311618
407.0096
407.0096
440.2484
440.2484
845.5473
845.5473
0.0 0.230979 0.0
293.0312
296.0952
615.6048
633.7294
753.6127
1031.4778
0.0 0.230979 0.062324
308.2745
309.8521
610.2076
651.7018
744.4254
1028.6091
0.0 0.230979 0.124647
340.8467
352.412
593.8907
690.2884
726.7364
1017.9681
0.0 0.230979 0.186971
385.6218
408.5516
566.6747
662.3832
775.5773
995.4653
0.0 0.230979 0.249295
435.2957
471.9697
529.4995
604.8871
843.9593
958.3934
0.0 0.230979 -0.311618
484.6077
484.6077
539.0745
539.0745
906.9386
906.9386
0.0 0.346468 0.0
392.3045
411.6766
671.6095
815.9304
902.4656
943.571
0.0 0.346468 0.062324
402.1253
417.6728
666.4342
818.697
876.5973
971.1598
0.0 0.346468 0.124647
429.0842
435.9252
651.1185
786.8977
883.6056
1001.6163
0.0 0.346468 0.186971
467.3327
468.2035
626.3306
724.4077
921.9758
1016.5731
0.0 0.346468 0.249295
510.6063
516.9191
593.2815
652.9586
961.8909
1013.4364
0.0 0.346468 -0.311618
553.8251
553.8251
580.7908
580.7908
993.9956
993.9956
0.0 0.461957 0.0
445.0391
506.2792
708.0125
851.8312
909.4525
997.5632
0.0 0.461957 0.062324
453.927
505.6775
702.9155
827.567
926.0251
1012.29
0.0 0.461957 0.124647
478.5197
506.3642
687.9288
778.3513
959.2633
1040.4268
0.0 0.461957 0.186971
513.814
515.6124
663.9246
718.1738
997.2998
1061.67
0.0 0.461957 0.249295
542.4002
554.1752
632.2717
652.5044
1031.7122
1067.3131
0.0 0.461957 -0.311618
590.1524
590.1524
594.8402
594.8402
1056.4337
1056.4337
0.0 -0.577446 0.0
461.0342
551.3621
720.2096
804.3627
938.4651
1027.3238
0.0 -0.577446 0.062324
469.6657
547.3799
715.1175
790.6799
950.3594
1038.6166
0.0 -0.577446 0.124647
493.589
539.402
700.1486
754.7024
980.6618
1062.4594
0.0 -0.577446 0.186971
528.0286
537.4847
676.2007
703.9679
1018.0361
1082.1605
0.0 -0.577446 0.249295
553.0506
567.581
644.7104
645.7953
1052.4023
1087.7818
0.0 -0.577446 -0.311618
591.228
591.228
607.6386
607.6386
1077.1037
1077.1037
0.100017 0.173234 0.0
257.7285
284.2934
528.8325
638.3987
698.2085
1051.1628
0.100017 0.173234 0.062324
275.9855
296.6541
546.4664
639.153
690.0978
1045.4177
0.100017 0.173234 0.124647
320.4111
329.518
571.0626
660.9227
665.6774
1027.3565
0.100017 0.173234 0.186971
374.2256
376.1379
559.6245
625.6384
727.9718
995.1642
0.100017 0.173234 0.249295
422.5808
434.3755
529.4764
573.5072
808.9328
947.4597
0.100017 0.173234 -0.311618
461.7982
461.7982
521.8673
521.8673
884.4815
884.4815
0.100017 0.288723 0.0
373.2424
404.1523
635.2798
784.5849
834.0235
976.3494
0.100017 0.288723 0.062324
376.6111
415.3505
639.3335
782.9248
825.7281
984.1859
0.100017 0.288723 0.124647
391.9702
443.2013
641.6035
754.9295
836.0254
996.2684
0.100017 0.288723 0.186971
423.6479
479.7394
629.9687
702.1863
873.2933
998.1738
0.100017 0.288723 0.249295
469.6825
515.0755
606.48
644.1832
917.1579
984.5627
0.100017 0.288723 -0.311618
515.6844
515.6844
601.8377
601.8377
956.2904
956.2904
0.100017 0.404213 0.0
475.7696
479.6159
703.735
874.7209
884.5584
955.9425
0.100017 0.404213 0.062324
464.296
497.7526
702.239
836.6145
907.5249
975.16
0.100017 0.404213 0.124647
459.5428
524.651
692.0506
786.3055
934.8647
1007.1624
0.100017 0.404213 0.186971
468.3926
556.1919
665.7927
737.1345
968.0146
1028.9609
0.100017 0.404213 0.249295
495.8667
574.2726
637.7944
694.2335
999.7981
1034.1944
0.100017 0.404213 -0.311618
539.5383
539.5383
656.9096
656.9096
1023.387
1023.387
0.100017 0.519702 0.0
514.0261
551.83
738.511
806.2434
919.0538
1013.3765
0.100017 0.519702 0.062324
510.615
557.6575
726.9156
799.1129
932.5791
1022.9172
0.100017 0.519702 0.124647
502.8422
575.9249
695.3287
781.2314
964.3783
1044.1699
0.100017 0.519702 0.186971
499.8755
603.1614
652.3681
754.5522
1001.6826
1062.6586
0.100017 0.519702 0.249295
512.7372
592.5071
647.5068
721.1222
1035.1272
1068.39
0.100017 0.519702 -0.311618
546.0566
546.0566
684.0008
684.0008
1058.637
1058.637
0.200033 0.346468 0.0
465.1308
532.9181
688.8791
868.847
896.5636
921.2779
0.200033 0.346468 0.062324
459.1259
539.4846
699.0001
822.8244
924.2066
936.7909
0.200033 0.346468 0.124647
450.8043
556.6896
716.1274
763.8582
935.1718
976.8951
0.200033 0.346468 0.186971
455.2461
574.6206
709.3566
721.6394
955.5411
1001.1127
0.200033 0.346468 0.249295
480.3848
566.5552
682.7863
711.8538
979.557
1007.6797
0.200033 0.346468 -0.311618
523.6303
523.6303
693.6062
693.6062
998.9865
998.9865
0.200033 0.461957 0.0
552.5975
614.3574
755.6365
809.2694
887.8354
983.3342
0.200033 0.461957 0.062324
537.415
622.8498
751.5995
795.6517
912.9382
986.2019
0.200033 0.461957 0.124647
511.2142
633.0812
722.0458
800.3854
949.753
997.4061
0.200033 0.461957 0.186971
494.4104
614.5447
713.8456
801.9042
979.7218
1013.9264
0.200033 0.461957 0.249295
497.8457
568.757
736.242
788.4981
1003.8841
1023.233
0.200033 0.461957 -0.311618
524.7372
524.7372
764.5569
764.5569
1019.5602
1019.5602
0.200033 0.577446 0.0
602.6743
639.6183
757.5458
791.4424
884.7124
1001.9775
0.200033 0.577446 0.062324
578.2005
659.9511
718.3855
820.6103
898.6956
1004.4791
0.200033 0.577446 0.124647
542.984
664.2139
689.7807
841.438
932.4554
1013.4255
0.200033 0.577446 0.186971
516.6355
610.4073
722.3993
838.8004
970.912
1025.615
0.200033 0.577446 0.249295
508.9229
561.4636
757.1115
819.4909
1003.252
1031.2467
0.200033 0.577446 -0.311618
524.8453
524.8453
790.7527
790.7527
1024.0828
1024.0828
0.30005 0.519702 0.0
632.6915
728.5003
728.8607
803.5862
852.5722
987.6497
0.30005 0.519702 0.062324
611.4089
690.2946
746.8913
825.2723
877.0291
983.4992
0.30005 0.519702 0.124647
570.7887
638.4547
765.5509
864.1024
920.9985
974.4401
0.30005 0.519702 0.186971
535.1252
587.5214
791.8667
886.6051
958.4393
971.5669
0.30005 0.519702 0.249295
516.0203
545.3536
823.2652
879.1087
980.946
981.0446
0.30005 0.519702 -0.311618
519.518
519.518
854.4085
854.4085
987.5574
987.5574
P	=	13000.23	V	=	62.25223	E	=	-653.81786734
0.0 0.0 0.0
-0.0
0.0
0.0
545.7549
545.7549
1148.2175
0.0 0.0 0.062305
82.4872
82.4872
201.1965
539.8564
539.8564
1135.233
0.0 0.0 0.124609
162.3286
162.3286
393.8865
521.0872
521.0872
1097.5043
0.0 0.0 0.186914
238.4564
238.4564
487.5822
487.5822
570.1811
1037.4552
0.0 0.0 0.249218
310.9604
310.9604
439.2647
439.2647
724.013
956.2228
0.0 0.0 -0.311523
378.9586
378.9586
378.9586
378.9586
852.5063
852.5063
0.0 0.115499 0.0
157.7215
163.49
357.773
572.0857
617.8889
1125.5943
0.0 0.115499 0.062305
183.9327
197.3304
397.44
566.2939
611.5701
1114.8674
0.0 0.115499 0.124609
232.8789
262.9071
502.1638
548.1904
591.8777
1083.2537
0.0 0.115499 0.186914
293.1173
326.1561
516.6154
556.6742
633.3384
1031.8227
0.0 0.115499 0.249218
355.9754
388.8655
471.9458
508.6898
759.7542
960.9819
0.0 0.115499 -0.311523
416.9807
416.9807
450.9249
450.9249
870.2507
870.2507
0.0 0.230999 0.0
300.9215
303.2255
631.0429
650.9486
772.48
1062.2184
0.0 0.230999 0.062305
315.6681
318.3656
625.4869
669.3904
763.2021
1059.2927
0.0 0.230999 0.124609
348.9676
362.0467
608.6921
708.2987
746.2293
1048.3241
0.0 0.230999 0.186914
394.7967
419.2072
580.6872
679.1195
797.5452
1024.9684
0.0 0.230999 0.249218
445.7115
483.8632
542.4549
620.1942
868.1428
986.4759
0.0 0.230999 -0.311523
496.3251
496.3251
552.6187
552.6187
933.1964
933.1964
0.0 0.346498 0.0
402.555
422.4317
688.9336
838.6171
927.3707
971.2623
0.0 0.346498 0.062305
412.5803
428.8637
683.5865
841.0601
901.5691
999.2566
0.0 0.346498 0.124609
440.1156
448.0006
667.7807
808.3111
908.8921
1030.5673
0.0 0.346498 0.186914
479.2174
481.1723
642.2474
744.2704
948.1786
1045.8912
0.0 0.346498 0.249218
523.5037
531.0237
608.274
670.8264
989.2172
1042.4964
0.0 0.346498 -0.311523
567.787
567.787
596.5873
596.5873
1022.329
1022.329
0.0 0.461997 0.0
457.6225
519.479
726.7632
876.2801
935.9273
1027.1272
0.0 0.461997 0.062305
466.7226
519.113
721.5121
851.2639
952.8604
1042.2557
0.0 0.461997 0.124609
491.8822
520.2842
706.0881
800.5681
986.734
1071.1612
0.0 0.461997 0.186914
527.9496
530.0661
681.4295
738.6138
1025.6283
1092.8583
0.0 0.461997 0.249218
557.6689
569.1657
648.9871
670.9981
1061.063
1098.3454
0.0 0.461997 -0.311523
606.8018
606.8018
610.7023
610.7023
1086.7721
1086.7721
0.0 -0.577496 0.0
474.5126
565.8945
739.4809
827.0826
966.4613
1058.515
0.0 -0.577496 0.062305
483.3681
562.0303
734.2466
813.039
978.3907
1070.1004
0.0 -0.577496 0.124609
507.8728
554.2553
718.8721
776.0939
1008.9686
1094.5077
0.0 -0.577496 0.186914
543.0659
552.5728
694.3159
723.9672
1047.0421
1114.4877
0.0 -0.577496 0.249218
568.7025
583.4094
662.0981
664.1597
1082.4495
1119.7973
0.0 -0.577496 -0.311523
608.0189
608.0189
624.2527
624.2527
1108.2664
1108.2664
0.100025 0.173249 0.0
264.7545
290.8118
542.5604
655.0549
715.2834
1082.5938
0.100025 0.173249 0.062305
283.6126
303.4577
560.5022
656.0591
707.0603
1076.7097
0.100025 0.173249 0.124609
329.033
337.0977
585.175
679.2934
682.2356
1058.1169
0.100025 0.173249 0.186914
382.8983
385.6444
573.256
641.3571
748.7603
1024.8121
0.100025 0.173249 0.249218
432.47
444.9309
542.3536
587.9093
832.2959
975.3951
0.100025 0.173249 -0.311523
472.7042
472.7042
534.84
534.84
910.2668
910.2668
0.100025 0.288748 0.0
383.1491
413.8064
651.1806
806.0262
856.4453
1005.2342
0.100025 0.288748 0.062305
386.8035
425.3004
655.1883
803.9119
848.6355
1013.2005
0.100025 0.288748 0.124609
402.7448
453.8379
657.3311
774.9017
859.9692
1025.4889
0.100025 0.288748 0.186914
435.0021
491.2402
645.4613
720.9324
898.3322
1027.2516
0.100025 0.288748 0.249218
481.771
527.3996
621.7806
661.2457
943.425
1012.9965
0.100025 0.288748 -0.311523
528.3769
528.3769
617.449
617.449
983.7281
983.7281
0.100025 0.404248 0.0
488.3048
491.9968
721.783
899.5088
910.3273
983.6823
0.100025 0.404248 0.062305
476.6426
510.707
720.1784
860.3556
933.8869
1003.4166
0.100025 0.404248 0.124609
472.1024
538.284
709.7969
808.3767
961.898
1036.3455
0.100025 0.404248 0.186914
481.3127
570.5198
683.3838
757.3171
995.7666
1058.6927
0.100025 0.404248 0.249218
509.3984
589.0631
655.1131
712.7364
1028.3166
1063.8954
0.100025 0.404248 -0.311523
553.9843
553.9843
674.3544
674.3544
1052.6109
1052.6109
0.100025 0.519747 0.0
528.1508
566.5876
757.9138
829.2856
946.1319
1043.7589
0.100025 0.519747 0.062305
524.593
572.8028
746.202
821.6878
959.8141
1053.5702
0.100025 0.519747 0.124609
516.7057
591.765
714.1469
802.8145
992.0698
1075.337
0.100025 0.519747 0.186914
513.8168
619.665
670.3655
775.082
1030.119
1094.0751
0.100025 0.519747 0.249218
527.0942
608.8522
665.2829
740.6345
1064.5233
1099.5277
0.100025 0.519747 -0.311523
561.2916
561.2916
702.5658
702.5658
1089.0211
1089.0211
0.200051 0.346498 0.0
477.5446
545.712
706.3046
892.4942
922.8921
948.3322
0.200051 0.346498 0.062305
471.5893
552.4117
716.4594
845.8779
951.4129
963.6546
0.200051 0.346498 0.124609
463.3285
569.9858
733.6853
785.4607
962.7548
1004.8813
0.200051 0.346498 0.186914
467.8685
588.3877
729.4768
739.3337
983.5149
1029.745
0.200051 0.346498 0.249218
493.4056
580.7516
701.4039
729.6517
1007.8475
1036.4352
0.200051 0.346498 -0.311523
537.423
537.423
711.52
711.52
1027.5571
1027.5571
0.200051 0.461997 0.0
567.7199
630.0437
775.3167
832.8292
913.1149
1012.274
0.200051 0.461997 0.062305
552.1603
638.7623
771.6928
817.9707
939.0312
1015.2584
0.200051 0.461997 0.124609
525.3787
649.2606
742.2576
821.3912
976.9677
1026.6775
0.200051 0.461997 0.186914
508.2442
630.8196
733.3564
822.6374
1007.7461
1043.2869
0.200051 0.461997 0.249218
511.8101
584.3069
755.8457
808.992
1032.4203
1052.488
0.200051 0.461997 -0.311523
539.3358
539.3358
784.6372
784.6372
1048.5087
1048.5087
0.200051 0.577496 0.0
619.4881
656.6113
779.4083
812.2608
910.3765
1031.3283
0.200051 0.577496 0.062305
594.1669
677.7027
738.4915
842.724
924.5754
1033.9573
0.200051 0.577496 0.124609
558.0104
682.6502
708.3773
863.9894
958.9083
1043.151
0.200051 0.577496 0.186914
531.0902
627.3801
741.8116
861.1772
998.1423
1055.3992
0.200051 0.577496 0.249218
523.338
577.2356
777.359
841.3205
1031.3321
1060.741
0.200051 0.577496 -0.311523
539.7359
539.7359
811.8313
811.8313
1052.9656
1052.9656
0.300076 0.519747 0.0
650.6907
747.8955
750.0463
825.5718
876.3795
1015.7999
0.300076 0.519747 0.062305
628.6642
709.5888
767.3389
847.83
901.6203
1011.5352
0.300076 0.519747 0.124609
586.7727
656.2062
786.2461
887.479
946.8052
1002.2253
0.300076 0.519747 0.186914
550.2037
603.9158
813.0619
910.2877
985.1625
999.1454
0.300076 0.519747 0.249218
530.7743
560.8049
845.1674
902.5267
1008.2872
1008.4122
0.300076 0.519747 -0.311523
534.4305
534.4305
877.1237
877.1237
1014.9901
1014.9901
P	=	14000.02	V	=	60.85756	E	=	-653.68992706
0.0 0.0 0.0
-0.0
0.0
0.0
558.2908
558.2908
1180.1831
0.0 0.0 0.062284
84.2365
84.2365
206.6443
552.3491
552.3491
1166.8284
0.0 0.0 0.124569
165.8402
165.8402
404.4904
533.3537
533.3537
1127.987
0.0 0.0 0.186853
243.7768
243.7768
499.2417
499.2417
585.4608
1066.0965
0.0 0.0 0.249137
318.141
318.141
449.814
449.814
743.4312
982.3523
0.0 0.0 -0.311421
387.9499
387.9499
387.9499
387.9499
875.5413
875.5413
0.0 0.115508 0.0
161.8694
167.079
366.6516
585.2179
631.8749
1156.8629
0.0 0.115508 0.062284
187.938
202.3945
407.5031
579.346
625.4842
1145.8625
0.0 0.115508 0.124569
237.9286
269.1154
515.3756
560.9373
605.5202
1113.377
0.0 0.115508 0.186853
299.55
333.5062
528.7021
569.6344
650.3104
1060.3964
0.0 0.115508 0.249137
363.9667
397.6558
482.9521
520.5595
780.2267
987.3455
0.0 0.115508 -0.311421
426.5609
426.5609
461.3214
461.3214
893.8718
893.8718
0.0 0.231016 0.0
308.5286
310.1686
645.7368
667.4705
790.564
1091.546
0.0 0.231016 0.062284
322.8523
326.5884
640.0482
686.3532
781.1824
1088.5775
0.0 0.231016 0.124569
356.8184
371.4068
622.8386
725.5664
764.8663
1077.3108
0.0 0.231016 0.186853
403.6205
429.6484
594.1136
695.2499
818.4963
1053.1323
0.0 0.231016 0.249137
455.6999
495.5743
554.879
635.0705
891.1896
1013.257
0.0 0.231016 -0.311421
507.5578
507.5578
565.9056
565.9056
958.2172
958.2172
0.0 0.346524 0.0
412.4854
432.7552
705.483
860.4176
951.2505
997.7795
0.0 0.346524 0.062284
422.7116
439.6164
699.9918
862.5844
925.458
1026.1618
0.0 0.346524 0.124569
450.7974
459.6555
683.758
828.9424
933.061
1058.2452
0.0 0.346524 0.186853
490.689
493.7835
657.5371
763.4513
973.2018
1073.8697
0.0 0.346524 0.249137
535.9086
544.8091
622.6767
688.1706
1015.2773
1070.1941
0.0 0.346524 -0.311421
581.1956
581.1956
612.0054
612.0054
1049.3277
1049.3277
0.0 0.462032 0.0
469.8266
532.1503
744.7076
899.7449
961.4115
1055.4331
0.0 0.462032 0.062284
479.1379
532.0232
739.327
874.0427
978.6643
1070.9408
0.0 0.462032 0.124569
504.8463
533.7016
723.5224
821.9667
1013.1136
1100.5563
0.0 0.462032 0.186853
541.6348
544.0515
698.2653
758.3397
1052.7679
1122.6438
0.0 0.462032 0.249137
572.471
583.6337
665.0753
688.8813
1089.1045
1127.9443
0.0 0.462032 -0.311421
622.9313
622.9313
625.98
625.98
1115.7079
1115.7079
0.0 -0.57754 0.0
487.6041
579.8717
757.9269
848.8858
993.4113
1088.3707
0.0 -0.57754 0.062284
496.6826
576.1325
752.5722
834.5145
1005.3816
1100.2332
0.0 -0.57754 0.124569
521.7518
568.5866
736.8445
796.6802
1036.2091
1125.1617
0.0 -0.57754 0.186853
557.6496
567.1596
711.7365
743.2465
1074.881
1145.3675
0.0 -0.57754 0.249137
583.8314
598.7131
678.8406
681.8777
1111.1845
1150.3395
0.0 -0.57754 -0.311421
624.2302
624.2302
640.2747
640.2747
1137.9988
1137.9988
0.100033 0.173262 0.0
271.539
297.1132
555.7328
670.902
731.6678
1112.5529
0.100033 0.173262 0.062284
290.9995
310.0156
573.9579
672.1581
723.3282
1106.5543
0.100033 0.173262 0.124569
337.4385
344.3625
598.6926
696.812
698.1231
1087.4862
0.100033 0.173262 0.186853
391.1793
394.9893
586.3155
656.5124
768.5896
1053.1285
0.100033 0.173262 0.249137
441.9123
455.3357
554.7117
601.9238
854.5709
1002.0571
0.100033 0.173262 -0.311421
483.2068
483.2068
547.5089
547.5089
934.855
934.855
0.100033 0.28877 0.0
392.6717
423.0625
666.3954
826.5879
877.9771
1032.8664
0.100033 0.28877 0.062284
396.6132
434.8443
670.3693
824.0839
870.564
1040.9581
0.100033 0.28877 0.124569
413.1736
464.0434
672.4092
794.1619
882.8124
1053.4229
0.100033 0.28877 0.186853
446.0974
502.2669
660.326
739.0604
922.2111
1055.01
0.100033 0.28877 0.249137
493.6438
539.2366
636.4924
677.8032
968.4633
1040.1076
0.100033 0.28877 -0.311421
540.7341
540.7341
632.5365
632.5365
1009.877
1009.877
0.100033 0.404278 0.0
500.3372
503.8967
739.0684
923.4074
935.0654
1010.2296
0.100033 0.404278 0.062284
488.5129
523.1514
737.3797
883.244
959.1676
1030.4733
0.100033 0.404278 0.124569
484.2265
551.3769
726.8558
829.6713
987.7818
1064.2681
0.100033 0.404278 0.186853
493.8743
584.2712
700.3508
776.7791
1022.3019
1087.098
0.100033 0.404278 0.249137
522.6304
603.353
671.8079
730.517
1055.5476
1092.2389
0.100033 0.404278 -0.311421
568.0984
568.0984
691.0836
691.0836
1080.4932
1080.4932
0.100033 0.519786 0.0
541.7932
580.7852
776.5109
851.432
972.2321
1072.8165
0.100033 0.519786 0.062284
538.0733
587.4055
764.7087
843.3948
986.0539
1082.8874
0.100033 0.519786 0.124569
530.0961
607.0453
732.2728
823.5625
1018.7127
1105.136
0.100033 0.519786 0.186853
527.3514
635.5497
687.7832
794.7862
1057.4073
1124.084
0.100033 0.519786 0.249137
541.0872
624.7352
682.3507
759.3292
1092.6456
1129.2442
0.100033 0.519786 -0.311421
576.1468
576.1468
720.346
720.346
1118.0282
1118.0282
0.200066 0.346524 0.0
489.4655
557.8697
723.0467
915.4032
948.1771
974.1451
0.200066 0.346524 0.062284
483.5714
564.699
733.2391
868.1682
977.3656
989.4839
0.200066 0.346524 0.124569
475.4264
582.6336
750.5602
806.3829
989.0573
1031.7243
0.200066 0.346524 0.186853
480.1708
601.5368
748.9772
756.3101
1010.1931
1057.1448
0.200066 0.346524 0.249137
506.1975
594.5114
719.3299
746.6808
1034.8415
1063.9106
0.200066 0.346524 -0.311421
550.9639
550.9639
728.6538
728.6538
1054.8334
1054.8334
0.200066 0.462032 0.0
582.2744
645.0555
794.2275
855.5263
937.5791
1039.893
0.200066 0.462032 0.062284
566.3621
653.9785
791.0098
839.5317
964.1998
1042.9964
0.200066 0.462032 0.124569
539.0654
664.7242
761.8136
841.6024
1003.1066
1054.6482
0.200066 0.462032 0.186853
521.6913
646.5299
752.1493
842.5211
1034.5828
1071.3598
0.200066 0.462032 0.249137
525.4685
599.4807
774.6116
828.598
1059.7115
1080.4515
0.200066 0.462032 -0.311421
553.6442
553.6442
803.8283
803.8283
1076.1778
1076.1778
0.200066 0.57754 0.0
635.7067
672.9634
800.4824
832.2695
935.1546
1059.3432
0.200066 0.57754 0.062284
609.5567
694.8039
757.877
863.9776
949.5403
1062.1015
0.200066 0.57754 0.124569
572.5296
700.4834
726.2708
885.6186
984.3737
1071.5448
0.200066 0.57754 0.186853
545.1283
643.8739
760.4439
882.6032
1024.2879
1083.8509
0.200066 0.57754 0.249137
537.4099
592.6343
796.7526
862.2057
1058.2229
1088.9133
0.200066 0.57754 -0.311421
554.3033
554.3033
831.9997
831.9997
1080.5732
1080.5732
0.300099 0.519786 0.0
668.0656
766.5613
770.5059
846.734
899.3762
1042.6271
0.300099 0.519786 0.062284
645.3403
728.1847
787.0823
869.5174
925.3217
1038.2613
0.300099 0.519786 0.124569
602.2576
673.3811
806.1783
909.9064
971.6005
1028.7367
0.300099 0.519786 0.186853
564.8623
619.8508
833.4282
932.965
1010.7703
1025.495
0.300099 0.519786 0.249137
545.1742
575.8898
866.1794
924.9431
1034.3448
1034.6673
0.300099 0.519786 -0.311421
549.0146
549.0146
898.8894
898.8894
1041.2111
1041.2111
P	=	15000.3	V	=	59.57219	E	=	-653.5632711
0.0 0.0 0.0
-0.0
-0.0
0.0
570.2474
570.2474
1210.8323
0.0 0.0 0.062264
85.985
85.985
211.7749
564.2757
564.2757
1197.1662
0.0 0.0 0.124529
169.2975
169.2975
414.5154
545.084
545.084
1157.3546
0.0 0.0 0.186793
248.9277
248.9277
510.3951
510.3951
599.9925
1093.7716
0.0 0.0 0.249058
325.0159
325.0159
459.8904
459.8904
762.0266
1007.6079
0.0 0.0 -0.311322
396.529
396.529
396.529
396.529
897.7334
897.7334
0.0 0.115516 0.0
165.9033
170.6
375.1141
597.7851
645.1859
1186.8789
0.0 0.115516 0.062264
191.8623
207.3719
417.0787
591.841
638.7514
1175.6488
0.0 0.115516 0.124529
242.8481
275.1853
527.9778
573.1469
618.5739
1142.3986
0.0 0.115516 0.186793
305.7652
340.5673
540.2788
582.0433
666.5713
1087.9854
0.0 0.115516 0.249058
371.6376
406.0032
493.4869
531.8844
799.9126
1012.8123
0.0 0.115516 -0.311322
435.7313
435.7313
471.1904
471.1904
916.6531
916.6531
0.0 0.231032 0.0
315.8996
316.9814
659.8496
683.2832
807.758
1119.7814
0.0 0.231032 0.062264
329.8873
334.6416
654.0276
702.5892
798.3329
1116.7737
0.0 0.231032 0.124529
364.4702
380.63
636.4075
742.0864
782.7772
1105.2285
0.0 0.231032 0.186793
412.176
439.8025
606.9851
710.7322
838.6494
1080.2694
0.0 0.231032 0.249058
465.3393
506.7732
566.7976
649.2883
913.3915
1039.069
0.0 0.231032 -0.311322
518.3579
518.3579
578.5462
578.5462
982.3328
982.3328
0.0 0.346549 0.0
422.2175
442.7273
721.3583
881.2896
974.0998
1023.3865
0.0 0.346549 0.062264
432.6368
450.0681
715.7277
883.2139
948.4422
1052.0485
0.0 0.346549 0.124529
461.241
471.0683
699.0817
848.8227
956.3276
1084.8418
0.0 0.346549 0.186793
501.8565
506.0859
672.2044
781.9571
997.2746
1100.7456
0.0 0.346549 0.249058
547.9172
558.1142
636.5098
704.8516
1040.3167
1096.7878
0.0 0.346549 -0.311322
594.1126
594.1126
626.8033
626.8033
1075.2475
1075.2475
0.0 0.462065 0.0
481.7603
544.3964
761.8626
922.4268
985.819
1082.668
0.0 0.462065 0.062264
491.2842
544.5133
756.3779
896.068
1003.4286
1098.5411
0.0 0.462065 0.124529
517.521
546.7049
740.2494
842.6966
1038.4732
1128.829
0.0 0.462065 0.186793
554.9582
557.5954
714.447
777.4579
1078.8381
1151.2515
0.0 0.462065 0.249058
586.7629
597.6346
680.5504
706.1751
1115.9838
1156.3157
0.0 0.462065 -0.311322
638.4915
638.4915
640.6998
640.6998
1143.4152
1143.4152
0.0 -0.577581 0.0
500.3905
593.4072
775.5324
869.9426
1019.2369
1117.1481
0.0 -0.577581 0.062264
509.696
589.7689
770.0949
855.283
1031.2833
1129.2732
0.0 -0.577581 0.124529
535.3112
582.4143
754.0945
816.643
1062.3956
1154.6765
0.0 -0.577581 0.186793
571.8369
581.2178
728.5
761.9655
1101.6179
1175.0344
0.0 -0.577581 0.249058
598.4128
613.5115
694.9582
699.0508
1138.7132
1179.6034
0.0 -0.577581 -0.311322
639.8891
639.8891
655.7092
655.7092
1166.4488
1166.4488
0.10004 0.173274 0.0
278.1218
303.235
568.3848
686.0518
747.2614
1141.3718
0.10004 0.173274 0.062264
298.2596
316.3804
586.8596
687.5622
738.8505
1135.2757
0.10004 0.173274 0.124529
345.7373
351.3961
611.6393
713.3511
713.6126
1115.7785
0.10004 0.173274 0.186793
399.1736
404.0572
598.8266
671.0481
787.6632
1080.4319
0.10004 0.173274 0.249058
451.0031
465.2589
566.5478
615.2955
876.0389
1027.7765
0.10004 0.173274 -0.311322
493.2749
493.2749
559.5503
559.5503
958.571
958.571
0.10004 0.28879 0.0
401.8864
432.0518
681.0047
846.255
898.5827
1059.5327
0.10004 0.28879 0.062264
406.1978
444.1092
684.9257
843.3947
891.6298
1067.71
0.10004 0.28879 0.124529
423.4452
473.954
686.8456
812.6888
904.8055
1080.3031
0.10004 0.28879 0.186793
456.9281
512.9524
674.565
756.508
945.2086
1081.7048
0.10004 0.28879 0.249058
505.0513
550.6537
650.5844
693.6886
992.5588
1066.174
0.10004 0.28879 -0.311322
552.5551
552.5551
647.0004
647.0004
1035.0226
1035.0226
0.10004 0.404307 0.0
511.9757
515.4751
755.6123
946.2981
958.9994
1035.7672
0.10004 0.404307 0.062264
500.0735
535.229
753.8491
905.3203
983.5131
1056.4985
0.10004 0.404307 0.124529
496.0693
564.1046
743.2078
850.2596
1012.7153
1091.1117
0.10004 0.404307 0.186793
506.079
597.6178
716.6279
795.5821
1047.8276
1114.3733
0.10004 0.404307 0.249058
535.3555
617.1205
687.846
747.6484
1081.6755
1119.4123
0.10004 0.404307 -0.311322
581.6084
581.6084
707.1851
707.1851
1107.2082
1107.2082
0.10004 0.519823 0.0
555.0767
594.5499
794.283
872.862
997.263
1100.8389
0.10004 0.519823 0.062264
551.2288
601.5378
782.4576
864.376
1011.2541
1111.1599
0.10004 0.519823 0.124529
543.1348
621.8448
749.7538
843.5936
1044.3342
1133.8454
0.10004 0.519823 0.186793
540.4278
650.9355
704.5964
813.7945
1083.6113
1152.9212
0.10004 0.519823 0.249058
554.5075
640.0239
698.8077
777.3354
1119.5739
1157.7111
0.10004 0.519823 -0.311322
590.3769
590.3769
737.4587
737.4587
1145.7703
1145.7703
0.20008 0.346549 0.0
501.0121
569.6004
739.1013
937.3145
972.6564
999.034
0.20008 0.346549 0.062264
495.2365
576.5759
749.3057
889.652
1002.4157
1014.3412
0.20008 0.346549 0.124529
487.2659
594.8862
766.6954
826.6132
1014.4701
1057.5057
0.20008 0.346549 0.186793
492.1305
614.2469
767.7967
772.5539
1035.9209
1083.4308
0.20008 0.346549 0.249058
518.4608
607.6893
736.5756
762.9935
1060.7816
1090.2435
0.20008 0.346549 -0.311322
563.8612
563.8612
745.0921
745.0921
1080.9815
1080.9815
0.20008 0.462065 0.0
596.4103
659.5599
812.376
877.5542
961.0617
1066.562
0.20008 0.462065 0.062264
580.1794
668.7039
809.5843
860.4027
988.3942
1069.7961
0.20008 0.462065 0.124529
552.3792
679.7353
780.7094
861.0364
1028.256
1081.6465
0.20008 0.462065 0.186793
534.6669
661.7097
770.28
861.5938
1060.3698
1098.3501
0.20008 0.462065 0.249058
538.491
613.9923
792.6238
847.3654
1085.8478
1107.2307
0.20008 0.462065 -0.311322
567.2301
567.2301
822.1862
822.1862
1102.6312
1102.6312
0.20008 0.577581 0.0
651.4897
688.7936
820.9429
851.4793
958.9857
1086.3871
0.20008 0.577581 0.062264
624.5526
711.3443
776.6978
884.412
973.5743
1089.2844
0.20008 0.577581 0.124529
586.6437
717.8248
743.5693
906.4015
1008.8911
1098.9463
0.20008 0.577581 0.186793
558.639
659.8297
778.4008
903.1749
1049.3866
1111.204
0.20008 0.577581 0.249058
550.7908
607.3623
815.3353
882.197
1083.9396
1115.8773
0.20008 0.577581 -0.311322
568.1145
568.1145
851.2671
851.2671
1106.9378
1106.9378
0.30012 0.519823 0.0
684.988
784.5224
790.4182
867.1996
921.5425
1068.497
0.30012 0.519823 0.062264
661.5928
746.2801
806.1293
890.4634
948.1712
1064.0597
0.30012 0.519823 0.124529
617.3197
690.1093
825.4015
931.5029
995.4672
1054.3418
0.30012 0.519823 0.186793
578.9796
635.2425
852.992
954.7226
1035.345
1050.8481
0.30012 0.519823 0.249058
558.8437
590.2522
886.2155
946.3328
1059.2727
1059.802
0.30012 0.519823 -0.311322
562.7779
562.7779
919.5789
919.5789
1066.2619
1066.2619

weight
   0.0000000   0.0000000   0.0000000   0.0020000   
   0.0000000   0.0000000   0.1000000   0.0040000   
   0.0000000   0.0000000   0.2000000   0.0040000   
   0.0000000   0.0000000   0.3000000   0.0040000   
   0.0000000   0.0000000   0.4000000   0.0040000   
   0.0000000   0.0000000  -0.5000000   0.0020000   
   0.0000000   0.1000000   0.0000000   0.0120000   
   0.0000000   0.1000000   0.1000000   0.0240000   
   0.0000000   0.1000000   0.2000000   0.0240000   
   0.0000000   0.1000000   0.3000000   0.0240000   
   0.0000000   0.1000000   0.4000000   0.0240000   
   0.0000000   0.1000000  -0.5000000   0.0120000   
   0.0000000   0.2000000   0.0000000   0.0120000   
   0.0000000   0.2000000   0.1000000   0.0240000   
   0.0000000   0.2000000   0.2000000   0.0240000   
   0.0000000   0.2000000   0.3000000   0.0240000   
   0.0000000   0.2000000   0.4000000   0.0240000   
   0.0000000   0.2000000  -0.5000000   0.0120000   
   0.0000000   0.3000000   0.0000000   0.0120000   
   0.0000000   0.3000000   0.1000000   0.0240000   
   0.0000000   0.3000000   0.2000000   0.0240000   
   0.0000000   0.3000000   0.3000000   0.0240000   
   0.0000000   0.3000000   0.4000000   0.0240000   
   0.0000000   0.3000000  -0.5000000   0.0120000   
   0.0000000   0.4000000   0.0000000   0.0120000   
   0.0000000   0.4000000   0.1000000   0.0240000   
   0.0000000   0.4000000   0.2000000   0.0240000   
   0.0000000   0.4000000   0.3000000   0.0240000   
   0.0000000   0.4000000   0.4000000   0.0240000   
   0.0000000   0.4000000  -0.5000000   0.0120000   
   0.0000000  -0.5000000   0.0000000   0.0060000   
   0.0000000  -0.5000000   0.1000000   0.0120000   
   0.0000000  -0.5000000   0.2000000   0.0120000   
   0.0000000  -0.5000000   0.3000000   0.0120000   
   0.0000000  -0.5000000   0.4000000   0.0120000   
   0.0000000  -0.5000000  -0.5000000   0.0060000   
   0.1000000   0.1000000   0.0000000   0.0120000   
   0.1000000   0.1000000   0.1000000   0.0240000   
   0.1000000   0.1000000   0.2000000   0.0240000   
   0.1000000   0.1000000   0.3000000   0.0240000   
   0.1000000   0.1000000   0.4000000   0.0240000   
   0.1000000   0.1000000  -0.5000000   0.0120000   
   0.1000000   0.2000000   0.0000000   0.0240000   
   0.1000000   0.2000000   0.1000000   0.0480000   
   0.1000000   0.2000000   0.2000000   0.0480000   
   0.1000000   0.2000000   0.3000000   0.0480000   
   0.1000000   0.2000000   0.4000000   0.0480000   
   0.1000000   0.2000000  -0.5000000   0.0240000   
   0.1000000   0.3000000   0.0000000   0.0240000   
   0.1000000   0.3000000   0.1000000   0.0480000   
   0.1000000   0.3000000   0.2000000   0.0480000   
   0.1000000   0.3000000   0.3000000   0.0480000   
   0.1000000   0.3000000   0.4000000   0.0480000   
   0.1000000   0.3000000  -0.5000000   0.0240000   
   0.1000000   0.4000000   0.0000000   0.0240000   
   0.1000000   0.4000000   0.1000000   0.0480000   
   0.1000000   0.4000000   0.2000000   0.0480000   
   0.1000000   0.4000000   0.3000000   0.0480000   
   0.1000000   0.4000000   0.4000000   0.0480000   
   0.1000000   0.4000000  -0.5000000   0.0240000   
   0.2000000   0.2000000   0.0000000   0.0120000   
   0.2000000   0.2000000   0.1000000   0.0240000   
   0.2000000   0.2000000   0.2000000   0.0240000   
   0.2000000   0.2000000   0.3000000   0.0240000   
   0.2000000   0.2000000   0.4000000   0.0240000   
   0.2000000   0.2000000  -0.5000000   0.0120000   
   0.2000000   0.3000000   0.0000000   0.0240000   
   0.2000000   0.3000000   0.1000000   0.0480000   
   0.2000000   0.3000000   0.2000000   0.0480000   
   0.2000000   0.3000000   0.3000000   0.0480000   
   0.2000000   0.3000000   0.4000000   0.0480000   
   0.2000000   0.3000000  -0.5000000   0.0240000   
   0.2000000   0.4000000   0.0000000   0.0120000   
   0.2000000   0.4000000   0.1000000   0.0240000   
   0.2000000   0.4000000   0.2000000   0.0240000   
   0.2000000   0.4000000   0.3000000   0.0240000   
   0.2000000   0.4000000   0.4000000   0.0240000   
   0.2000000   0.4000000  -0.5000000   0.0120000   
   0.3000000   0.3000000   0.0000000   0.0120000   
   0.3000000   0.3000000   0.1000000   0.0240000   
   0.3000000   0.3000000   0.2000000   0.0240000   
   0.3000000   0.3000000   0.3000000   0.0240000   
   0.3000000   0.3000000   0.4000000   0.0240000   
   0.3000000   0.3000000  -0.5000000   0.0120000   